%OpenBCI Raw EEG Data
%Number of channels = 8
%Sample Rate = 250.0 Hz
%First Column = SampleIndex
%Last Column = Timestamp 
%Other Columns = EEG data in microvolts followed by Accel Data (in G) interleaved with Aux Data
0, 0.00, 0.00, 0.00, 0.00, 0.00, 0.00, 0.00, 0.00, 0.176, 0.306, 0.984, 18:46:41.570, 1577144801570
1, -187500.02, 82214.07, 86074.84, 101844.65, 100414.56, 85369.96, -187500.02, -187500.02, 0.000, 0.000, 0.000, 18:46:42.057, 1577144802057
2, -187500.02, 83133.27, 87085.19, 102860.55, 101289.43, 85480.42, -187500.02, -187500.02, 0.000, 0.000, 0.000, 18:46:42.057, 1577144802057
3, -187500.02, 83156.60, 87007.74, 102773.34, 101541.02, 87251.33, -187500.02, -187500.02, 0.000, 0.000, 0.000, 18:46:42.057, 1577144802057
4, -187500.02, 82225.72, 85992.99, 101754.99, 100605.73, 86840.57, -187500.02, -187500.02, 0.000, 0.000, 0.000, 18:46:42.058, 1577144802058
5, -187500.02, 82110.72, 85949.54, 101719.45, 100339.86, 85520.25, -187500.02, -187500.02, 0.000, 0.000, 0.000, 18:46:42.058, 1577144802058
6, -187500.02, 82972.20, 86913.48, 102690.05, 101107.69, 85283.68, -187500.02, -187500.02, 0.000, 0.000, 0.000, 18:46:42.058, 1577144802058
7, -187500.02, 83262.13, 87141.98, 102912.81, 101610.65, 87008.16, -187500.02, -187500.02, 0.000, 0.000, 0.000, 18:46:42.058, 1577144802058
8, -187500.02, 82336.90, 86109.55, 101874.40, 100741.52, 87050.92, -187500.02, -187500.02, 0.178, 0.294, 0.982, 18:46:42.058, 1577144802058
9, -187500.02, 82045.45, 85873.41, 101641.13, 100299.96, 85692.83, -187500.02, -187500.02, 0.000, 0.000, 0.000, 18:46:42.058, 1577144802058
10, -187500.02, 82806.57, 86739.95, 102513.50, 100933.41, 85167.05, -187500.02, -187500.02, 0.000, 0.000, 0.000, 18:46:42.058, 1577144802058
11, -187500.02, 83334.14, 87241.56, 103011.79, 101632.40, 86711.27, -187500.02, -187500.02, 0.000, 0.000, 0.000, 18:46:42.058, 1577144802058
12, -187500.02, 82496.06, 86279.09, 102038.10, 100910.55, 87250.16, -187500.02, -187500.02, 0.000, 0.000, 0.000, 18:46:42.058, 1577144802058
13, -187500.02, 81996.08, 85813.59, 101576.49, 100287.34, 85896.43, -187500.02, -187500.02, 0.000, 0.000, 0.000, 18:46:42.058, 1577144802058
14, -187500.02, 82620.12, 86547.80, 102317.05, 100766.96, 85135.63, -187500.02, -187500.02, 0.000, 0.000, 0.000, 18:46:42.058, 1577144802058
15, -187500.02, 83370.82, 87307.48, 103073.63, 101634.90, 86399.08, -187500.02, -187500.02, 0.000, 0.000, 0.000, 18:46:42.058, 1577144802058
16, -187500.02, 82691.77, 86496.40, 102252.08, 101121.23, 87412.13, -187500.02, -187500.02, 0.000, 0.000, 0.000, 18:46:42.058, 1577144802058
17, -187500.02, 82030.03, 85833.78, 101591.05, 100337.05, 86142.44, -187500.02, -187500.02, 0.000, 0.000, 0.000, 18:46:42.058, 1577144802058
18, -187500.02, 82475.05, 86383.30, 102147.63, 100628.02, 85181.49, -187500.02, -187500.02, 0.188, 0.292, 0.986, 18:46:42.058, 1577144802058
19, -187500.02, 83343.75, 87296.59, 103062.46, 101556.53, 86056.52, -187500.02, -187500.02, 0.000, 0.000, 0.000, 18:46:42.058, 1577144802058
20, -187500.02, 82873.54, 86702.48, 102457.29, 101301.74, 87466.71, -187500.02, -187500.02, 0.000, 0.000, 0.000, 18:46:42.058, 1577144802058
21, -187500.02, 82049.98, 85852.76, 101607.38, 100394.89, 86378.96, -187500.02, -187500.02, 0.000, 0.000, 0.000, 18:46:42.058, 1577144802058
22, -187500.02, 82295.25, 86192.41, 101954.48, 100485.41, 85259.70, -187500.02, -187500.02, 0.000, 0.000, 0.000, 18:46:42.058, 1577144802058
23, -187500.02, 83248.22, 87212.88, 102975.71, 101427.66, 85735.01, -187500.02, -187500.02, 0.000, 0.000, 0.000, 18:46:42.058, 1577144802058
24, -187500.02, 83042.30, 86890.95, 102643.59, 101454.48, 87415.19, -187500.02, -187500.02, 0.000, 0.000, 0.000, 18:46:42.058, 1577144802058
25, -187500.02, 82145.32, 85938.12, 101688.41, 100513.40, 86654.73, -187500.02, -187500.02, 0.000, 0.000, 0.000, 18:46:42.058, 1577144802058
26, -187500.02, 82211.44, 86089.91, 101846.93, 100424.53, 85426.95, -187500.02, -187500.02, 0.000, 0.000, 0.000, 18:46:42.058, 1577144802058
27, -187500.02, 83143.26, 87110.91, 102873.43, 101296.96, 85506.73, -187500.02, -187500.02, 0.000, 0.000, 0.000, 18:46:42.058, 1577144802058
28, -187500.02, 83186.17, 87054.70, 102810.16, 101565.23, 87260.00, -187500.02, -187500.02, 0.184, 0.286, 0.984, 18:46:42.058, 1577144802058
29, -187500.02, 82261.97, 86044.63, 101795.67, 100644.38, 86908.67, -187500.02, -187500.02, 0.000, 0.000, 0.000, 18:46:42.058, 1577144802058
30, -187500.02, 82133.78, 85986.91, 101743.13, 100363.60, 85593.97, -187500.02, -187500.02, 0.000, 0.000, 0.000, 18:46:42.058, 1577144802058
31, -187500.02, 82979.75, 86942.77, 102704.95, 101118.48, 85319.27, -187500.02, -187500.02, 0.000, 0.000, 0.000, 18:46:42.058, 1577144802058
32, -187500.02, 83320.05, 87222.67, 102975.96, 101661.90, 87041.00, -187500.02, -187500.02, 0.000, 0.000, 0.000, 18:46:42.058, 1577144802058
33, -187500.02, 82400.42, 86192.28, 101937.61, 100799.91, 87146.63, -187500.02, -187500.02, 0.000, 0.000, 0.000, 18:46:42.058, 1577144802058
34, -187500.02, 82054.73, 85892.66, 101643.19, 100309.73, 85762.37, -187500.02, -187500.02, 0.000, 0.000, 0.000, 18:46:42.058, 1577144802058
35, -187500.02, 82805.86, 86754.59, 102513.05, 100939.65, 85208.71, -187500.02, -187500.02, 0.000, 0.000, 0.000, 18:46:42.058, 1577144802058
36, -187500.02, 83388.55, 87307.12, 103058.99, 101676.88, 86728.63, -187500.02, -187500.02, 0.000, 0.000, 0.000, 18:46:42.059, 1577144802059
37, -187500.02, 82569.48, 86367.05, 102110.45, 100989.36, 87344.76, -187500.02, -187500.02, 0.000, 0.000, 0.000, 18:46:42.059, 1577144802059
38, -187500.02, 82057.19, 85882.35, 101629.18, 100340.46, 85996.84, -187500.02, -187500.02, 0.180, 0.286, 0.980, 18:46:42.059, 1577144802059
39, -187500.02, 82639.76, 86567.19, 102321.56, 100771.07, 85187.23, -187500.02, -187500.02, 0.000, 0.000, 0.000, 18:46:42.059, 1577144802059
40, -187500.02, 83396.68, 87339.46, 103092.14, 101637.60, 86390.34, -187500.02, -187500.02, 0.000, 0.000, 0.000, 18:46:42.059, 1577144802059
41, -187500.02, 82733.03, 86543.47, 102287.23, 101154.63, 87460.90, -187500.02, -187500.02, 0.000, 0.000, 0.000, 18:46:42.059, 1577144802059
42, -187500.02, 82067.84, 85871.02, 101616.26, 100361.59, 86215.19, -187500.02, -187500.02, 0.000, 0.000, 0.000, 18:46:42.059, 1577144802059
43, -187500.02, 82482.02, 86390.67, 102143.83, 100625.78, 85229.99, -187500.02, -187500.02, 0.000, 0.000, 0.000, 18:46:42.059, 1577144802059
44, -187500.02, 83363.76, 87319.66, 103073.10, 101556.20, 86056.07, -187500.02, -187500.02, 0.000, 0.000, 0.000, 18:46:42.059, 1577144802059
45, -187500.02, 82910.84, 86736.95, 102480.30, 101317.17, 87488.66, -187500.02, -187500.02, 0.000, 0.000, 0.000, 18:46:42.059, 1577144802059
46, -187500.02, 82098.36, 85896.30, 101640.06, 100426.92, 86459.25, -187500.02, -187500.02, 0.000, 0.000, 0.000, 18:46:42.059, 1577144802059
47, -187500.02, 82355.47, 86243.31, 101994.38, 100522.14, 85349.82, -187500.02, -187500.02, 0.000, 0.000, 0.000, 18:46:42.059, 1577144802059
48, -187500.02, 83263.17, 87232.13, 102987.27, 101431.27, 85749.34, -187500.02, -187500.02, 0.186, 0.286, 0.980, 18:46:42.059, 1577144802059
49, -187500.02, 83096.25, 86944.20, 102687.73, 101482.98, 87433.34, -187500.02, -187500.02, 0.000, 0.000, 0.000, 18:46:42.059, 1577144802059
50, -187500.02, 82190.06, 85976.85, 101719.68, 100536.04, 86715.73, -187500.02, -187500.02, 0.000, 0.000, 0.000, 18:46:42.059, 1577144802059
51, -187500.02, 82241.09, 86107.30, 101857.88, 100431.16, 85479.84, -187500.02, -187500.02, 0.000, 0.000, 0.000, 18:46:42.059, 1577144802059
52, -187500.02, 83142.98, 87104.16, 102860.51, 101275.62, 85496.90, -187500.02, -187500.02, 0.000, 0.000, 0.000, 18:46:42.059, 1577144802059
53, -187500.02, 83236.66, 87110.38, 102857.27, 101593.50, 87262.64, -187500.02, -187500.02, 0.000, 0.000, 0.000, 18:46:42.059, 1577144802059
54, -187500.02, 82301.45, 86083.18, 101825.11, 100669.52, 86964.63, -187500.02, -187500.02, 0.000, 0.000, 0.000, 18:46:42.059, 1577144802059
55, -187500.02, 82145.56, 85994.89, 101743.62, 100365.81, 85638.09, -187500.02, -187500.02, 0.000, 0.000, 0.000, 18:46:42.059, 1577144802059
56, -187500.02, 82977.49, 86935.79, 102692.31, 101101.32, 85314.55, -187500.02, -187500.02, 0.000, 0.000, 0.000, 18:46:42.059, 1577144802059
57, -187500.02, 83345.65, 87245.92, 102994.17, 101662.28, 87006.13, -187500.02, -187500.02, 0.000, 0.000, 0.000, 18:46:42.059, 1577144802059
58, -187500.02, 82452.43, 86239.20, 101982.06, 100841.97, 87204.99, -187500.02, -187500.02, 0.188, 0.286, 0.982, 18:46:42.059, 1577144802059
59, -187500.02, 82087.70, 85925.83, 101674.51, 100339.44, 85833.42, -187500.02, -187500.02, 0.000, 0.000, 0.000, 18:46:42.059, 1577144802059
60, -187500.02, 82805.88, 86762.27, 102519.11, 100933.86, 85233.97, -187500.02, -187500.02, 0.000, 0.000, 0.000, 18:46:42.059, 1577144802059
61, -187500.02, 83406.85, 87345.59, 103102.24, 101693.57, 86716.74, -187500.02, -187500.02, 0.000, 0.000, 0.000, 18:46:42.059, 1577144802059
62, -187500.02, 82604.83, 86422.81, 102166.80, 101024.61, 87380.92, -187500.02, -187500.02, 0.000, 0.000, 0.000, 18:46:42.059, 1577144802059
63, -187500.02, 82068.88, 85910.96, 101655.41, 100353.88, 86047.71, -187500.02, -187500.02, 0.000, 0.000, 0.000, 18:46:42.059, 1577144802059
64, -187500.02, 82640.12, 86588.94, 102341.48, 100774.55, 85218.82, -187500.02, -187500.02, 0.000, 0.000, 0.000, 18:46:42.059, 1577144802059
65, -187500.02, 83385.02, 87355.30, 103108.41, 101633.13, 86358.06, -187500.02, -187500.02, 0.000, 0.000, 0.000, 18:46:42.059, 1577144802059
66, -187500.02, 82762.09, 86588.87, 102328.02, 101175.01, 87473.95, -187500.02, -187500.02, 0.000, 0.000, 0.000, 18:46:42.059, 1577144802059
67, -187500.02, 82064.20, 85891.54, 101633.00, 100372.38, 86262.13, -187500.02, -187500.02, 0.000, 0.000, 0.000, 18:46:42.059, 1577144802059
68, -187500.02, 82447.24, 86380.17, 102129.61, 100604.77, 85251.00, -187500.02, -187500.02, 0.182, 0.292, 0.982, 18:46:42.059, 1577144802059
69, -187500.02, 83339.80, 87325.05, 103075.80, 101542.70, 86018.88, -187500.02, -187500.02, 0.000, 0.000, 0.000, 18:46:42.059, 1577144802059
70, -187500.02, 82945.63, 86797.72, 102536.26, 101357.96, 87511.30, -187500.02, -187500.02, 0.000, 0.000, 0.000, 18:46:42.059, 1577144802059
71, -187500.02, 82138.26, 85950.86, 101687.36, 100462.44, 86520.23, -187500.02, -187500.02, 0.000, 0.000, 0.000, 18:46:42.059, 1577144802059
72, -187500.02, 82328.42, 86238.10, 101981.93, 100502.78, 85363.50, -187500.02, -187500.02, 0.000, 0.000, 0.000, 18:46:42.059, 1577144802059
73, -187500.02, 83261.84, 87252.73, 102999.49, 101424.37, 85727.05, -187500.02, -187500.02, 0.000, 0.000, 0.000, 18:46:42.059, 1577144802059
74, -187500.02, 83124.30, 87008.16, 102744.75, 101525.77, 87448.70, -187500.02, -187500.02, 0.000, 0.000, 0.000, 18:46:42.060, 1577144802060
75, -187500.02, 82209.83, 86029.49, 101762.86, 100579.88, 86790.30, -187500.02, -187500.02, 0.000, 0.000, 0.000, 18:46:42.060, 1577144802060
76, -187500.02, 82212.69, 86112.13, 101851.69, 100428.87, 85520.03, -187500.02, -187500.02, 0.000, 0.000, 0.000, 18:46:42.060, 1577144802060
77, -187500.02, 83125.13, 87124.28, 102869.61, 101276.29, 85490.93, -187500.02, -187500.02, 0.000, 0.000, 0.000, 18:46:42.060, 1577144802060
78, -187500.02, 83275.87, 87189.44, 102925.51, 101648.71, 87279.60, -187500.02, -187500.02, 0.184, 0.286, 0.980, 18:46:42.060, 1577144802060
79, -187500.02, 82321.38, 86142.48, 101873.34, 100716.31, 87037.40, -187500.02, -187500.02, 0.000, 0.000, 0.000, 18:46:42.060, 1577144802060
80, -187500.02, 82136.53, 86017.80, 101755.09, 100373.27, 85689.19, -187500.02, -187500.02, 0.000, 0.000, 0.000, 18:46:42.060, 1577144802060
81, -187500.02, 82975.26, 86967.10, 102711.47, 101116.94, 85336.12, -187500.02, -187500.02, 0.000, 0.000, 0.000, 18:46:42.061, 1577144802061
82, -187500.02, 83356.56, 87302.34, 103040.89, 101700.52, 87014.65, -187500.02, -187500.02, 0.000, 0.000, 0.000, 18:46:42.061, 1577144802061
83, -187500.02, 82456.39, 86283.50, 102011.41, 100874.47, 87260.05, -187500.02, -187500.02, 0.000, 0.000, 0.000, 18:46:42.061, 1577144802061
84, -187500.02, 82085.57, 85949.52, 101685.44, 100348.31, 85877.73, -187500.02, -187500.02, 0.000, 0.000, 0.000, 18:46:42.061, 1577144802061
85, -187500.02, 82776.17, 86757.89, 102504.34, 100912.87, 85232.88, -187500.02, -187500.02, 0.000, 0.000, 0.000, 18:46:42.061, 1577144802061
86, -187500.02, 83406.00, 87376.27, 103119.68, 101693.86, 86681.49, -187500.02, -187500.02, 0.000, 0.000, 0.000, 18:46:42.061, 1577144802061
87, -187500.02, 82609.59, 86454.55, 102189.91, 101047.54, 87420.11, -187500.02, -187500.02, 0.000, 0.000, 0.000, 18:46:42.061, 1577144802061
88, -187500.02, 82049.48, 85915.63, 101655.73, 100364.45, 86100.23, -187500.02, -187500.02, 0.182, 0.282, 0.980, 18:46:42.062, 1577144802062
89, -187500.02, 82618.19, 86587.70, 102333.93, 100764.97, 85242.09, -187500.02, -187500.02, 0.000, 0.000, 0.000, 18:46:42.062, 1577144802062
90, -187500.02, 83397.22, 87390.47, 103137.45, 101641.89, 86329.99, -187500.02, -187500.02, 0.000, 0.000, 0.000, 18:46:42.062, 1577144802062
91, -187500.02, 82789.31, 86651.79, 102388.66, 101223.13, 87517.25, -187500.02, -187500.02, 0.000, 0.000, 0.000, 18:46:42.062, 1577144802062
92, -187500.02, 82084.45, 85938.61, 101679.16, 100410.70, 86327.53, -187500.02, -187500.02, 0.000, 0.000, 0.000, 18:46:42.062, 1577144802062
93, -187500.02, 82468.30, 86424.02, 102175.03, 100641.54, 85311.82, -187500.02, -187500.02, 0.000, 0.000, 0.000, 18:46:42.062, 1577144802062
94, -187500.02, 83358.91, 87370.58, 103124.89, 101567.40, 86016.30, -187500.02, -187500.02, 0.000, 0.000, 0.000, 18:46:42.062, 1577144802062
95, -187500.02, 82966.84, 86847.25, 102591.76, 101388.02, 87524.38, -187500.02, -187500.02, 0.000, 0.000, 0.000, 18:46:42.062, 1577144802062
96, -187500.02, 82130.55, 85971.18, 101716.05, 100469.77, 86565.27, -187500.02, -187500.02, 0.000, 0.000, 0.000, 18:46:42.062, 1577144802062
97, -187500.02, 82320.45, 86250.22, 102003.03, 100496.88, 85394.50, -187500.02, -187500.02, 0.000, 0.000, 0.000, 18:46:42.062, 1577144802062
98, -187500.02, 83246.66, 87263.02, 103022.78, 101417.51, 85698.44, -187500.02, -187500.02, 0.182, 0.286, 0.978, 18:46:42.062, 1577144802062
99, -187500.02, 83119.45, 87030.16, 102782.52, 101526.72, 87427.88, -187500.02, -187500.02, 0.000, 0.000, 0.000, 18:46:42.062, 1577144802062
100, -187500.02, 82191.66, 86033.27, 101783.98, 100574.33, 86821.66, -187500.02, -187500.02, 0.000, 0.000, 0.000, 18:46:42.062, 1577144802062
101, -187500.02, 82183.70, 86102.49, 101860.61, 100407.03, 85542.90, -187500.02, -187500.02, 0.000, 0.000, 0.000, 18:46:42.062, 1577144802062
102, -187500.02, 83074.37, 87095.02, 102861.12, 101233.26, 85461.65, -187500.02, -187500.02, 0.000, 0.000, 0.000, 18:46:42.062, 1577144802062
103, -187500.02, 83234.16, 87174.66, 102933.80, 101620.82, 87235.75, -187500.02, -187500.02, 0.000, 0.000, 0.000, 18:46:42.062, 1577144802062
104, -187500.02, 82303.32, 86147.20, 101902.09, 100717.13, 87068.78, -187500.02, -187500.02, 0.000, 0.000, 0.000, 18:46:42.062, 1577144802062
105, -187500.02, 82096.34, 86004.10, 101767.13, 100360.38, 85718.78, -187500.02, -187500.02, 0.000, 0.000, 0.000, 18:46:42.062, 1577144802062
106, -187500.02, 82930.22, 86937.24, 102711.20, 101086.32, 85334.55, -187500.02, -187500.02, 0.000, 0.000, 0.000, 18:46:42.062, 1577144802062
107, -187500.02, 83376.56, 87341.63, 103106.07, 101720.86, 87004.84, -187500.02, -187500.02, 0.000, 0.000, 0.000, 18:46:42.062, 1577144802062
108, -187500.02, 82489.16, 86333.54, 102089.33, 100902.90, 87300.45, -187500.02, -187500.02, 0.000, 0.000, 0.000, 18:46:42.063, 1577144802063
109, -187500.02, 82086.42, 85972.59, 101733.09, 100355.17, 85919.43, -187500.02, -187500.02, 0.186, 0.292, 0.984, 18:46:42.063, 1577144802063
110, -187500.02, 82760.26, 86757.71, 102528.72, 100903.80, 85249.62, -187500.02, -187500.02, 0.000, 0.000, 0.000, 18:46:42.063, 1577144802063
111, -187500.02, 83408.86, 87398.73, 103167.87, 101705.06, 86664.33, -187500.02, -187500.02, 0.000, 0.000, 0.000, 18:46:42.063, 1577144802063
112, -187500.02, 82666.83, 86514.28, 102271.38, 101084.66, 87468.61, -187500.02, -187500.02, 0.000, 0.000, 0.000, 18:46:42.063, 1577144802063
113, -187500.02, 82090.22, 85957.27, 101719.50, 100377.12, 86146.44, -187500.02, -187500.02, 0.000, 0.000, 0.000, 18:46:42.065, 1577144802065
114, -187500.02, 82599.05, 86575.14, 102346.71, 100738.10, 85247.65, -187500.02, -187500.02, 0.000, 0.000, 0.000, 18:46:42.065, 1577144802065
115, -187500.02, 83411.55, 87420.22, 103193.93, 101648.04, 86313.02, -187500.02, -187500.02, 0.000, 0.000, 0.000, 18:46:42.065, 1577144802065
116, -187500.02, 82832.52, 86708.41, 102472.95, 101268.40, 87566.04, -187500.02, -187500.02, 0.000, 0.000, 0.000, 18:46:42.065, 1577144802065
117, -187500.02, 82101.27, 85956.83, 101721.58, 100420.87, 86387.50, -187500.02, -187500.02, 0.000, 0.000, 0.000, 18:46:42.065, 1577144802065
118, -187500.02, 82454.78, 86409.12, 102182.41, 100612.15, 85330.09, -187500.02, -187500.02, 0.000, 0.000, 0.000, 18:46:42.065, 1577144802065
119, -187500.02, 83355.35, 87375.16, 103152.70, 101547.30, 85981.97, -187500.02, -187500.02, 0.184, 0.290, 0.980, 18:46:42.065, 1577144802065
120, -187500.02, 83025.22, 86917.62, 102684.16, 101438.83, 87566.47, -187500.02, -187500.02, 0.000, 0.000, 0.000, 18:46:42.065, 1577144802065
121, -187500.02, 82169.50, 86018.43, 101784.79, 100513.47, 86644.16, -187500.02, -187500.02, 0.000, 0.000, 0.000, 18:46:42.538, 1577144802538
122, -187500.02, 82321.72, 86260.70, 102036.07, 100509.87, 85450.34, -187500.02, -187500.02, 0.000, 0.000, 0.000, 18:46:42.538, 1577144802538
123, -187500.02, 83256.87, 87280.66, 103061.81, 101415.23, 85699.60, -187500.02, -187500.02, 0.000, 0.000, 0.000, 18:46:42.538, 1577144802538
124, -187500.02, 83191.60, 87106.69, 102877.79, 101575.80, 87457.21, -187500.02, -187500.02, 0.000, 0.000, 0.000, 18:46:42.538, 1577144802538
125, -187500.02, 82259.89, 86103.84, 101872.61, 100635.46, 86900.70, -187500.02, -187500.02, 0.000, 0.000, 0.000, 18:46:42.538, 1577144802538
126, -187500.02, 82215.95, 86136.20, 101911.28, 100432.64, 85598.87, -187500.02, -187500.02, 0.000, 0.000, 0.000, 18:46:42.538, 1577144802538
127, -187500.02, 83102.55, 87122.05, 102902.94, 101239.83, 85472.13, -187500.02, -187500.02, 0.000, 0.000, 0.000, 18:46:42.538, 1577144802538
128, -187500.02, 83288.95, 87236.71, 103010.96, 101655.84, 87237.52, -187500.02, -187500.02, 0.000, 0.000, 0.000, 18:46:42.538, 1577144802538
129, -187500.02, 82380.01, 86227.08, 101994.34, 100773.87, 87147.41, -187500.02, -187500.02, 0.186, 0.292, 0.980, 18:46:42.538, 1577144802538
130, -187500.02, 82155.20, 86063.22, 101836.34, 100402.67, 85800.05, -187500.02, -187500.02, 0.000, 0.000, 0.000, 18:46:42.538, 1577144802538
131, -187500.02, 82913.80, 86942.45, 102724.77, 101066.49, 85337.68, -187500.02, -187500.02, 0.000, 0.000, 0.000, 18:46:42.538, 1577144802538
132, -187500.02, 83405.17, 87374.35, 103150.86, 101717.63, 86972.94, -187500.02, -187500.02, 0.000, 0.000, 0.000, 18:46:42.538, 1577144802538
133, -187500.02, 82540.70, 86388.06, 102155.16, 100937.81, 87359.91, -187500.02, -187500.02, 0.000, 0.000, 0.000, 18:46:42.538, 1577144802538
134, -187500.02, 82100.63, 85985.98, 101758.93, 100350.63, 85968.18, -187500.02, -187500.02, 0.000, 0.000, 0.000, 18:46:42.538, 1577144802538
135, -187500.02, 82762.05, 86765.58, 102547.70, 100893.96, 85271.59, -187500.02, -187500.02, 0.000, 0.000, 0.000, 18:46:42.538, 1577144802538
136, -187500.02, 83450.26, 87450.88, 103230.23, 101721.18, 86651.83, -187500.02, -187500.02, 0.000, 0.000, 0.000, 18:46:42.539, 1577144802539
137, -187500.02, 82688.78, 86554.96, 102327.09, 101113.68, 87512.53, -187500.02, -187500.02, 0.000, 0.000, 0.000, 18:46:42.539, 1577144802539
138, -187500.02, 82072.12, 85954.05, 101731.68, 100378.75, 86195.66, -187500.02, -187500.02, 0.000, 0.000, 0.000, 18:46:42.539, 1577144802539
139, -187500.02, 82580.02, 86560.10, 102344.19, 100723.87, 85274.00, -187500.02, -187500.02, 0.190, 0.288, 0.980, 18:46:42.539, 1577144802539
140, -187500.02, 83426.88, 87438.88, 103222.41, 101644.73, 86292.33, -187500.02, -187500.02, 0.000, 0.000, 0.000, 18:46:42.539, 1577144802539
141, -187500.02, 82876.48, 86756.48, 102530.04, 101292.38, 87590.47, -187500.02, -187500.02, 0.000, 0.000, 0.000, 18:46:42.539, 1577144802539
142, -187500.02, 82114.20, 85977.34, 101752.87, 100433.54, 86437.57, -187500.02, -187500.02, 0.000, 0.000, 0.000, 18:46:42.539, 1577144802539
143, -187500.02, 82448.32, 86412.24, 102194.54, 100609.47, 85370.05, -187500.02, -187500.02, 0.000, 0.000, 0.000, 18:46:42.539, 1577144802539
144, -187500.02, 83354.91, 87383.43, 103169.32, 101541.31, 85972.49, -187500.02, -187500.02, 0.000, 0.000, 0.000, 18:46:42.539, 1577144802539
145, -187500.02, 83044.04, 86948.41, 102723.92, 101457.23, 87581.42, -187500.02, -187500.02, 0.000, 0.000, 0.000, 18:46:42.539, 1577144802539
146, -187500.02, 82182.42, 86033.00, 101806.78, 100515.12, 86691.82, -187500.02, -187500.02, 0.000, 0.000, 0.000, 18:46:42.539, 1577144802539
147, -187500.02, 82302.72, 86244.02, 102027.40, 100491.67, 85479.33, -187500.02, -187500.02, 0.000, 0.000, 0.000, 18:46:42.539, 1577144802539
148, -187500.02, 83229.91, 87257.70, 103046.30, 101385.61, 85678.44, -187500.02, -187500.02, 0.000, 0.000, 0.000, 18:46:42.539, 1577144802539
149, -187500.02, 83197.75, 87121.04, 102900.48, 101585.30, 87458.69, -187500.02, -187500.02, 0.192, 0.286, 0.976, 18:46:42.539, 1577144802539
150, -187500.02, 82256.49, 86109.42, 101885.28, 100638.46, 86952.04, -187500.02, -187500.02, 0.000, 0.000, 0.000, 18:46:42.539, 1577144802539
151, -187500.02, 82205.31, 86130.34, 101911.19, 100419.97, 85646.20, -187500.02, -187500.02, 0.000, 0.000, 0.000, 18:46:42.539, 1577144802539
152, -187500.02, 83078.44, 87101.59, 102890.02, 101214.35, 85472.04, -187500.02, -187500.02, 0.000, 0.000, 0.000, 18:46:42.539, 1577144802539
153, -187500.02, 83308.03, 87264.63, 103041.90, 101667.20, 87238.41, -187500.02, -187500.02, 0.000, 0.000, 0.000, 18:46:42.539, 1577144802539
154, -187500.02, 82381.58, 86236.20, 102009.02, 100782.42, 87197.98, -187500.02, -187500.02, 0.000, 0.000, 0.000, 18:46:42.539, 1577144802539
155, -187500.02, 82131.52, 86041.09, 101819.86, 100380.43, 85835.93, -187500.02, -187500.02, 0.000, 0.000, 0.000, 18:46:42.539, 1577144802539
156, -187500.02, 82907.84, 86932.52, 102719.09, 101048.41, 85352.32, -187500.02, -187500.02, 0.000, 0.000, 0.000, 18:46:42.539, 1577144802539
157, -187500.02, 83384.86, 87377.86, 103160.27, 101715.88, 86960.53, -187500.02, -187500.02, 0.000, 0.000, 0.000, 18:46:42.539, 1577144802539
158, -187500.02, 82530.51, 86393.78, 102167.34, 100952.48, 87401.06, -187500.02, -187500.02, 0.000, 0.000, 0.000, 18:46:42.539, 1577144802539
159, -187500.02, 82088.92, 85987.52, 101764.20, 100370.52, 86032.80, -187500.02, -187500.02, 0.188, 0.286, 0.976, 18:46:42.539, 1577144802539
160, -187500.02, 82734.48, 86742.71, 102525.39, 100872.30, 85295.39, -187500.02, -187500.02, 0.000, 0.000, 0.000, 18:46:42.539, 1577144802539
161, -187500.02, 83430.66, 87439.44, 103220.17, 101701.66, 86625.16, -187500.02, -187500.02, 0.000, 0.000, 0.000, 18:46:42.539, 1577144802539
162, -187500.02, 82699.73, 86575.79, 102347.52, 101135.09, 87553.86, -187500.02, -187500.02, 0.000, 0.000, 0.000, 18:46:42.539, 1577144802539
163, -187500.02, 82082.58, 85965.30, 101737.83, 100389.80, 86258.35, -187500.02, -187500.02, 0.000, 0.000, 0.000, 18:46:42.539, 1577144802539
164, -187500.02, 82554.80, 86542.29, 102323.35, 100708.55, 85307.76, -187500.02, -187500.02, 0.000, 0.000, 0.000, 18:46:42.539, 1577144802539
165, -187500.02, 83405.71, 87432.78, 103214.34, 101630.25, 86266.29, -187500.02, -187500.02, 0.000, 0.000, 0.000, 18:46:42.539, 1577144802539
166, -187500.02, 82877.67, 86772.93, 102543.05, 101310.33, 87616.91, -187500.02, -187500.02, 0.000, 0.000, 0.000, 18:46:42.539, 1577144802539
167, -187500.02, 82106.13, 85982.66, 101752.40, 100443.17, 86495.64, -187500.02, -187500.02, 0.000, 0.000, 0.000, 18:46:42.539, 1577144802539
168, -187500.02, 82416.47, 86387.23, 102165.71, 100593.24, 85404.36, -187500.02, -187500.02, 0.000, 0.000, 0.000, 18:46:42.539, 1577144802539
169, -187500.02, 83330.05, 87367.89, 103148.42, 101520.41, 85945.67, -187500.02, -187500.02, 0.184, 0.288, 0.976, 18:46:42.539, 1577144802539
170, -187500.02, 83045.69, 86966.45, 102733.30, 101468.16, 87585.55, -187500.02, -187500.02, 0.000, 0.000, 0.000, 18:46:42.539, 1577144802539
171, -187500.02, 82163.53, 86032.94, 101799.14, 100529.34, 86749.76, -187500.02, -187500.02, 0.000, 0.000, 0.000, 18:46:42.539, 1577144802539
172, -187500.02, 82286.00, 86234.19, 102008.15, 100487.47, 85529.06, -187500.02, -187500.02, 0.000, 0.000, 0.000, 18:46:42.539, 1577144802539
173, -187500.02, 83228.88, 87269.37, 103046.91, 101384.24, 85681.68, -187500.02, -187500.02, 0.000, 0.000, 0.000, 18:46:42.539, 1577144802539
174, -187500.02, 83203.07, 87155.04, 102922.27, 101605.08, 87460.95, -187500.02, -187500.02, 0.000, 0.000, 0.000, 18:46:42.539, 1577144802539
175, -187500.02, 82267.00, 86132.40, 101893.13, 100657.57, 87009.62, -187500.02, -187500.02, 0.000, 0.000, 0.000, 18:46:42.539, 1577144802539
176, -187500.02, 82212.91, 86140.49, 101907.03, 100430.12, 85692.59, -187500.02, -187500.02, 0.000, 0.000, 0.000, 18:46:42.540, 1577144802540
177, -187500.02, 83081.01, 87116.63, 102890.53, 101214.53, 85473.83, -187500.02, -187500.02, 0.000, 0.000, 0.000, 18:46:42.540, 1577144802540
178, -187500.02, 83352.09, 87315.66, 103081.05, 101693.17, 87228.71, -187500.02, -187500.02, 0.000, 0.000, 0.000, 18:46:42.540, 1577144802540
179, -187500.02, 82407.93, 86267.70, 102027.26, 100811.35, 87247.73, -187500.02, -187500.02, 0.184, 0.286, 0.978, 18:46:42.540, 1577144802540
180, -187500.02, 82107.48, 86019.92, 101785.77, 100361.63, 85854.16, -187500.02, -187500.02, 0.000, 0.000, 0.000, 18:46:42.540, 1577144802540
181, -187500.02, 82883.38, 86902.44, 102675.46, 101009.41, 85329.15, -187500.02, -187500.02, 0.000, 0.000, 0.000, 18:46:42.540, 1577144802540
182, -187500.02, 83415.01, 87406.16, 103174.02, 101721.29, 86925.77, -187500.02, -187500.02, 0.000, 0.000, 0.000, 18:46:42.540, 1577144802540
183, -187500.02, 82545.91, 86410.52, 102170.06, 100969.45, 87437.18, -187500.02, -187500.02, 0.000, 0.000, 0.000, 18:46:42.540, 1577144802540
184, -187500.02, 82076.14, 85967.51, 101729.85, 100351.69, 86058.37, -187500.02, -187500.02, 0.000, 0.000, 0.000, 18:46:42.540, 1577144802540
185, -187500.02, 82713.61, 86715.96, 102488.47, 100847.31, 85295.28, -187500.02, -187500.02, 0.000, 0.000, 0.000, 18:46:42.540, 1577144802540
186, -187500.02, 83429.91, 87440.13, 103209.42, 101692.07, 86585.29, -187500.02, -187500.02, 0.000, 0.000, 0.000, 18:46:42.540, 1577144802540
187, -187500.02, 82719.53, 86590.45, 102348.81, 101144.41, 87571.56, -187500.02, -187500.02, 0.000, 0.000, 0.000, 18:46:42.540, 1577144802540
188, -187500.02, 82082.17, 85963.15, 101723.10, 100384.61, 86288.03, -187500.02, -187500.02, 0.000, 0.000, 0.000, 18:46:42.540, 1577144802540
189, -187500.02, 82545.21, 86528.34, 102297.02, 100693.40, 85324.85, -187500.02, -187500.02, 0.182, 0.286, 0.980, 18:46:42.540, 1577144802540
190, -187500.02, 83403.43, 87427.19, 103198.00, 101619.92, 86235.55, -187500.02, -187500.02, 0.000, 0.000, 0.000, 18:46:42.540, 1577144802540
191, -187500.02, 82890.55, 86781.29, 102542.18, 101319.70, 87619.64, -187500.02, -187500.02, 0.000, 0.000, 0.000, 18:46:42.540, 1577144802540
192, -187500.02, 82092.30, 85963.11, 101724.64, 100434.50, 86519.94, -187500.02, -187500.02, 0.000, 0.000, 0.000, 18:46:42.540, 1577144802540
193, -187500.02, 82366.71, 86336.91, 102106.77, 100551.62, 85399.55, -187500.02, -187500.02, 0.000, 0.000, 0.000, 18:46:42.540, 1577144802540
194, -187500.02, 83326.59, 87366.33, 103137.20, 101508.74, 85917.55, -187500.02, -187500.02, 0.000, 0.000, 0.000, 18:46:42.540, 1577144802540
195, -187500.02, 83083.35, 86995.20, 102754.01, 101486.69, 87584.55, -187500.02, -187500.02, 0.000, 0.000, 0.000, 18:46:42.540, 1577144802540
196, -187500.02, 82167.34, 86023.79, 101782.04, 100522.23, 86771.99, -187500.02, -187500.02, 0.000, 0.000, 0.000, 18:46:42.540, 1577144802540
197, -187500.02, 82245.88, 86184.75, 101951.63, 100444.63, 85529.44, -187500.02, -187500.02, 0.000, 0.000, 0.000, 18:46:42.540, 1577144802540
198, -187500.02, 83166.28, 87202.04, 102974.33, 101315.45, 85618.42, -187500.02, -187500.02, 0.000, 0.000, 0.000, 18:46:42.540, 1577144802540
199, -187500.02, 83199.98, 87141.31, 102904.43, 101589.57, 87413.94, -187500.02, -187500.02, 0.186, 0.286, 0.980, 18:46:42.540, 1577144802540
200, -187500.02, 82250.95, 86106.83, 101864.63, 100645.88, 87020.81, -187500.02, -187500.02, 0.000, 0.000, 0.000, 18:46:42.540, 1577144802540
201, -187500.02, 82128.42, 86052.63, 101816.62, 100362.64, 85669.74, -187500.02, -187500.02, 0.000, 0.000, 0.000, 18:46:42.540, 1577144802540
202, -187500.02, 82999.69, 87034.85, 102804.70, 101145.35, 85417.32, -187500.02, -187500.02, 0.000, 0.000, 0.000, 18:46:42.540, 1577144802540
203, -187500.02, 83319.68, 87285.52, 103046.81, 101668.02, 87173.21, -187500.02, -187500.02, 0.000, 0.000, 0.000, 18:46:42.540, 1577144802540
204, -187500.02, 82391.03, 86250.87, 102007.41, 100806.50, 87259.73, -187500.02, -187500.02, 0.000, 0.000, 0.000, 18:46:42.540, 1577144802540
205, -187500.02, 82082.64, 85992.88, 101751.09, 100346.27, 85876.94, -187500.02, -187500.02, 0.000, 0.000, 0.000, 18:46:42.540, 1577144802540
206, -187500.02, 82849.20, 86863.52, 102629.62, 100977.22, 85322.10, -187500.02, -187500.02, 0.000, 0.000, 0.000, 18:46:42.540, 1577144802540
207, -187500.02, 83389.80, 87384.21, 103146.34, 101697.62, 86875.15, -187500.02, -187500.02, 0.000, 0.000, 0.000, 18:46:42.540, 1577144802540
208, -187500.02, 82551.07, 86414.88, 102167.79, 100980.06, 87450.95, -187500.02, -187500.02, 0.000, 0.000, 0.000, 18:46:42.540, 1577144802540
209, -187500.02, 82051.38, 85943.80, 101702.13, 100346.41, 86084.01, -187500.02, -187500.02, 0.180, 0.286, 0.980, 18:46:42.540, 1577144802540
210, -187500.02, 82654.71, 86656.03, 102420.48, 100800.09, 85274.56, -187500.02, -187500.02, 0.000, 0.000, 0.000, 18:46:42.540, 1577144802540
211, -187500.02, 83398.87, 87415.66, 103175.23, 101659.33, 86515.42, -187500.02, -187500.02, 0.000, 0.000, 0.000, 18:46:42.540, 1577144802540
212, -187500.02, 82720.92, 86601.41, 102350.34, 101155.66, 87573.59, -187500.02, -187500.02, 0.000, 0.000, 0.000, 18:46:42.540, 1577144802540
213, -187500.02, 82048.96, 85932.35, 101683.60, 100368.16, 86302.83, -187500.02, -187500.02, 0.000, 0.000, 0.000, 18:46:42.540, 1577144802540
214, -187500.02, 82471.74, 86462.98, 102222.80, 100643.38, 85307.58, -187500.02, -187500.02, 0.000, 0.000, 0.000, 18:46:42.541, 1577144802541
215, -187500.02, 83350.77, 87390.80, 103150.91, 101583.58, 86170.20, -187500.02, -187500.02, 0.000, 0.000, 0.000, 18:46:42.541, 1577144802541
216, -187500.02, 82902.02, 86801.99, 102548.80, 101336.68, 87618.43, -187500.02, -187500.02, 0.000, 0.000, 0.000, 18:46:42.541, 1577144802541
217, -187500.02, 82093.75, 85971.18, 101718.29, 100445.36, 86558.24, -187500.02, -187500.02, 0.000, 0.000, 0.000, 18:46:42.541, 1577144802541
218, -187500.02, 82351.29, 86322.86, 102078.65, 100541.23, 85421.88, -187500.02, -187500.02, 0.000, 0.000, 0.000, 18:46:42.541, 1577144802541
219, -187500.02, 83284.97, 87332.15, 103091.47, 101476.07, 85870.05, -187500.02, -187500.02, 0.178, 0.286, 0.978, 18:46:42.541, 1577144802541
220, -187500.02, 83072.58, 87004.74, 102751.95, 101501.57, 87573.41, -187500.02, -187500.02, 0.000, 0.000, 0.000, 18:46:42.541, 1577144802541
221, -187500.02, 82156.31, 86028.15, 101773.45, 100539.95, 86814.42, -187500.02, -187500.02, 0.000, 0.000, 0.000, 18:46:42.541, 1577144802541
222, -187500.02, 82226.09, 86179.92, 101931.80, 100446.23, 85559.66, -187500.02, -187500.02, 0.000, 0.000, 0.000, 18:46:42.541, 1577144802541
223, -187500.02, 83160.58, 87209.04, 102965.63, 101313.48, 85608.61, -187500.02, -187500.02, 0.000, 0.000, 0.000, 18:46:42.541, 1577144802541
224, -187500.02, 83231.05, 87188.70, 102938.92, 101630.12, 87415.23, -187500.02, -187500.02, 0.000, 0.000, 0.000, 18:46:42.541, 1577144802541
225, -187500.02, 82280.30, 86151.02, 101896.99, 100692.99, 87078.80, -187500.02, -187500.02, 0.000, 0.000, 0.000, 18:46:42.541, 1577144802541
226, -187500.02, 82144.87, 86084.37, 101836.53, 100398.51, 85730.91, -187500.02, -187500.02, 0.000, 0.000, 0.000, 18:46:42.541, 1577144802541
227, -187500.02, 83001.77, 87044.84, 102801.84, 101156.57, 85440.13, -187500.02, -187500.02, 0.000, 0.000, 0.000, 18:46:42.541, 1577144802541
228, -187500.02, 83337.74, 87320.64, 103070.06, 101701.75, 87171.51, -187500.02, -187500.02, 0.000, 0.000, 0.000, 18:46:42.541, 1577144802541
229, -187500.02, 82422.03, 86296.02, 102033.74, 100849.32, 87315.86, -187500.02, -187500.02, 0.182, 0.286, 0.978, 18:46:42.541, 1577144802541
230, -187500.02, 82093.73, 86012.70, 101755.95, 100365.50, 85929.80, -187500.02, -187500.02, 0.000, 0.000, 0.000, 18:46:42.541, 1577144802541
231, -187500.02, 82829.33, 86861.23, 102614.09, 100977.49, 85339.02, -187500.02, -187500.02, 0.000, 0.000, 0.000, 18:46:42.541, 1577144802541
232, -187500.02, 83412.26, 87422.54, 103169.99, 101727.05, 86866.45, -187500.02, -187500.02, 0.000, 0.000, 0.000, 18:46:42.541, 1577144802541
233, -187500.02, 82591.44, 86470.09, 102206.77, 101026.66, 87515.44, -187500.02, -187500.02, 0.000, 0.000, 0.000, 18:46:42.541, 1577144802541
234, -187500.02, 82074.02, 85978.35, 101718.56, 100369.68, 86159.58, -187500.02, -187500.02, 0.000, 0.000, 0.000, 18:46:42.541, 1577144802541
235, -187500.02, 82652.93, 86671.28, 102419.40, 100812.48, 85333.15, -187500.02, -187500.02, 0.000, 0.000, 0.000, 18:46:42.541, 1577144802541
236, -187500.02, 83435.55, 87464.70, 103209.53, 101694.91, 86534.35, -187500.02, -187500.02, 0.000, 0.000, 0.000, 18:46:42.541, 1577144802541
237, -187500.02, 82764.41, 86654.72, 102387.68, 101202.19, 87633.74, -187500.02, -187500.02, 0.000, 0.000, 0.000, 18:46:42.541, 1577144802541
238, -187500.02, 82072.59, 85958.95, 101692.74, 100396.41, 86382.74, -187500.02, -187500.02, 0.000, 0.000, 0.000, 18:46:42.541, 1577144802541
239, -187500.02, 82486.41, 86479.84, 102220.85, 100655.42, 85370.34, -187500.02, -187500.02, 0.186, 0.282, 0.982, 18:46:42.541, 1577144802541
240, -187500.02, 83378.82, 87424.87, 103166.80, 101596.25, 86179.59, -187500.02, -187500.02, 0.000, 0.000, 0.000, 18:46:42.541, 1577144802541
241, -187500.02, 82945.94, 86859.21, 102589.59, 101381.27, 87668.75, -187500.02, -187500.02, 0.000, 0.000, 0.000, 18:46:43.018, 1577144803018
242, -187500.02, 82126.27, 86005.58, 101737.60, 100482.09, 86643.31, -187500.02, -187500.02, 0.000, 0.000, 0.000, 18:46:43.018, 1577144803018
243, -187500.02, 82369.28, 86341.92, 102079.84, 100555.35, 85490.75, -187500.02, -187500.02, 0.000, 0.000, 0.000, 18:46:43.019, 1577144803019
244, -187500.02, 83308.05, 87362.38, 103101.91, 101479.87, 85882.53, -187500.02, -187500.02, 0.000, 0.000, 0.000, 18:46:43.019, 1577144803019
245, -187500.02, 83123.43, 87057.31, 102787.65, 101533.49, 87608.35, -187500.02, -187500.02, 0.000, 0.000, 0.000, 18:46:43.019, 1577144803019
246, -187500.02, 82203.50, 86075.89, 101805.35, 100585.04, 86900.02, -187500.02, -187500.02, 0.000, 0.000, 0.000, 18:46:43.019, 1577144803019
247, -187500.02, 82241.88, 86199.34, 101935.40, 100460.23, 85627.61, -187500.02, -187500.02, 0.000, 0.000, 0.000, 18:46:43.019, 1577144803019
248, -187500.02, 83166.03, 87221.71, 102962.77, 101323.56, 85637.02, -187500.02, -187500.02, 0.000, 0.000, 0.000, 18:46:43.019, 1577144803019
249, -187500.02, 83266.28, 87231.34, 102960.22, 101651.84, 87435.75, -187500.02, -187500.02, 0.000, 0.000, 0.000, 18:46:43.019, 1577144803019
250, -187500.02, 82306.67, 86180.70, 101905.96, 100714.79, 87156.89, -187500.02, -187500.02, 0.184, 0.284, 0.982, 18:46:43.019, 1577144803019
251, -187500.02, 82155.82, 86096.91, 101828.33, 100405.44, 85808.05, -187500.02, -187500.02, 0.000, 0.000, 0.000, 18:46:43.019, 1577144803019
252, -187500.02, 83003.89, 87051.15, 102790.66, 101146.52, 85462.80, -187500.02, -187500.02, 0.000, 0.000, 0.000, 18:46:43.019, 1577144803019
253, -187500.02, 83359.38, 87361.73, 103092.55, 101721.42, 87176.36, -187500.02, -187500.02, 0.000, 0.000, 0.000, 18:46:43.019, 1577144803019
254, -187500.02, 82458.69, 86333.41, 102054.38, 100876.41, 87381.15, -187500.02, -187500.02, 0.000, 0.000, 0.000, 18:46:43.019, 1577144803019
255, -187500.02, 82111.55, 86031.28, 101757.09, 100376.30, 85999.25, -187500.02, -187500.02, 0.000, 0.000, 0.000, 18:46:43.019, 1577144803019
0, -187500.02, 82831.29, 86864.66, 102599.73, 100973.71, 85379.05, -187500.02, -187500.02, 0.000, 0.000, 0.000, 18:46:43.019, 1577144803019
1, -187500.02, 83422.70, 87443.35, 103174.64, 101732.71, 86856.26, -187500.02, -187500.02, 0.000, 0.000, 0.000, 18:46:43.019, 1577144803019
2, -187500.02, 82616.09, 86504.84, 102226.88, 101062.16, 87565.02, -187500.02, -187500.02, 0.000, 0.000, 0.000, 18:46:43.019, 1577144803019
3, -187500.02, 82091.74, 85995.16, 101719.05, 100387.91, 86217.02, -187500.02, -187500.02, 0.000, 0.000, 0.000, 18:46:43.019, 1577144803019
4, -187500.02, 82659.36, 86670.65, 102403.48, 100804.53, 85364.80, -187500.02, -187500.02, 0.184, 0.286, 0.978, 18:46:43.019, 1577144803019
5, -187500.02, 83417.84, 87454.20, 103188.30, 101675.83, 86495.30, -187500.02, -187500.02, 0.000, 0.000, 0.000, 18:46:43.019, 1577144803019
6, -187500.02, 82787.06, 86690.95, 102414.86, 101240.99, 87670.94, -187500.02, -187500.02, 0.000, 0.000, 0.000, 18:46:43.019, 1577144803019
7, -187500.02, 82085.70, 85982.15, 101707.23, 100424.69, 86445.28, -187500.02, -187500.02, 0.000, 0.000, 0.000, 18:46:43.019, 1577144803019
8, -187500.02, 82469.75, 86466.70, 102201.49, 100647.47, 85403.62, -187500.02, -187500.02, 0.000, 0.000, 0.000, 18:46:43.019, 1577144803019
9, -187500.02, 83366.33, 87424.51, 103158.82, 101588.52, 86155.11, -187500.02, -187500.02, 0.000, 0.000, 0.000, 18:46:43.019, 1577144803019
10, -187500.02, 82966.56, 86887.30, 102609.91, 101402.93, 87679.54, -187500.02, -187500.02, 0.000, 0.000, 0.000, 18:46:43.019, 1577144803019
11, -187500.02, 82125.65, 86012.57, 101736.80, 100484.14, 86680.45, -187500.02, -187500.02, 0.000, 0.000, 0.000, 18:46:43.019, 1577144803019
12, -187500.02, 82342.33, 86318.91, 102052.01, 100536.00, 85511.36, -187500.02, -187500.02, 0.000, 0.000, 0.000, 18:46:43.019, 1577144803019
13, -187500.02, 83274.39, 87330.97, 103070.20, 101461.92, 85848.78, -187500.02, -187500.02, 0.000, 0.000, 0.000, 18:46:43.019, 1577144803019
14, -187500.02, 83119.43, 87070.97, 102797.70, 101551.93, 87585.15, -187500.02, -187500.02, 0.180, 0.286, 0.982, 18:46:43.019, 1577144803019
15, -187500.02, 82213.09, 86091.41, 101813.06, 100601.89, 86940.73, -187500.02, -187500.02, 0.000, 0.000, 0.000, 18:46:43.019, 1577144803019
16, -187500.02, 82231.13, 86191.92, 101921.91, 100462.46, 85664.02, -187500.02, -187500.02, 0.000, 0.000, 0.000, 18:46:43.019, 1577144803019
17, -187500.02, 83143.08, 87203.61, 102939.37, 101305.55, 85615.43, -187500.02, -187500.02, 0.000, 0.000, 0.000, 18:46:43.019, 1577144803019
18, -187500.02, 83265.79, 87241.96, 102968.78, 101659.22, 87401.11, -187500.02, -187500.02, 0.000, 0.000, 0.000, 18:46:43.019, 1577144803019
19, -187500.02, 82303.57, 86191.56, 101914.12, 100734.95, 87187.80, -187500.02, -187500.02, 0.000, 0.000, 0.000, 18:46:43.020, 1577144803020
20, -187500.02, 82134.92, 86083.92, 101811.16, 100399.77, 85828.73, -187500.02, -187500.02, 0.000, 0.000, 0.000, 18:46:43.020, 1577144803020
21, -187500.02, 82975.51, 87028.19, 102763.02, 101124.43, 85445.30, -187500.02, -187500.02, 0.000, 0.000, 0.000, 18:46:43.020, 1577144803020
22, -187500.02, 83366.15, 87375.78, 103102.42, 101727.44, 87138.07, -187500.02, -187500.02, 0.000, 0.000, 0.000, 18:46:43.020, 1577144803020
23, -187500.02, 82460.88, 86351.55, 102068.97, 100903.44, 87415.30, -187500.02, -187500.02, 0.000, 0.000, 0.000, 18:46:43.020, 1577144803020
24, -187500.02, 82077.13, 86008.34, 101731.52, 100369.59, 86019.86, -187500.02, -187500.02, 0.186, 0.288, 0.980, 18:46:43.020, 1577144803020
25, -187500.02, 82785.18, 86827.34, 102559.12, 100945.13, 85359.63, -187500.02, -187500.02, 0.000, 0.000, 0.000, 18:46:43.020, 1577144803020
26, -187500.02, 83420.64, 87447.24, 103177.21, 101729.70, 86805.03, -187500.02, -187500.02, 0.000, 0.000, 0.000, 18:46:43.020, 1577144803020
27, -187500.02, 82612.36, 86513.50, 102233.39, 101073.98, 87574.78, -187500.02, -187500.02, 0.000, 0.000, 0.000, 18:46:43.020, 1577144803020
28, -187500.02, 82057.09, 85971.16, 101692.52, 100376.77, 86234.13, -187500.02, -187500.02, 0.000, 0.000, 0.000, 18:46:43.020, 1577144803020
29, -187500.02, 82633.63, 86657.80, 102389.85, 100798.56, 85368.30, -187500.02, -187500.02, 0.000, 0.000, 0.000, 18:46:43.020, 1577144803020
30, -187500.02, 83420.87, 87473.13, 103203.74, 101690.13, 86461.84, -187500.02, -187500.02, 0.000, 0.000, 0.000, 18:46:43.020, 1577144803020
31, -187500.02, 82792.89, 86707.45, 102428.27, 101260.95, 87677.06, -187500.02, -187500.02, 0.000, 0.000, 0.000, 18:46:43.020, 1577144803020
32, -187500.02, 82064.61, 85974.06, 101693.64, 100422.63, 86471.61, -187500.02, -187500.02, 0.000, 0.000, 0.000, 18:46:43.020, 1577144803020
33, -187500.02, 82458.22, 86463.72, 102191.79, 100647.13, 85422.35, -187500.02, -187500.02, 0.000, 0.000, 0.000, 18:46:43.020, 1577144803020
34, -187500.02, 83350.88, 87419.19, 103151.51, 101585.23, 86113.84, -187500.02, -187500.02, 0.184, 0.288, 0.978, 18:46:43.020, 1577144803020
35, -187500.02, 82965.11, 86907.78, 102629.33, 101433.40, 87679.37, -187500.02, -187500.02, 0.000, 0.000, 0.000, 18:46:43.020, 1577144803020
36, -187500.02, 82095.67, 85999.20, 101719.12, 100491.05, 86708.88, -187500.02, -187500.02, 0.000, 0.000, 0.000, 18:46:43.020, 1577144803020
37, -187500.02, 82298.05, 86285.06, 102011.86, 100517.09, 85519.83, -187500.02, -187500.02, 0.000, 0.000, 0.000, 18:46:43.020, 1577144803020
38, -187500.02, 83233.34, 87299.90, 103033.72, 101425.93, 85796.38, -187500.02, -187500.02, 0.000, 0.000, 0.000, 18:46:43.020, 1577144803020
39, -187500.02, 83114.40, 87071.75, 102798.09, 101556.24, 87559.16, -187500.02, -187500.02, 0.000, 0.000, 0.000, 18:46:43.021, 1577144803021
40, -187500.02, 82191.12, 86078.22, 101802.72, 100612.41, 86974.50, -187500.02, -187500.02, 0.000, 0.000, 0.000, 18:46:43.021, 1577144803021
41, -187500.02, 82182.80, 86145.34, 101875.83, 100440.31, 85677.32, -187500.02, -187500.02, 0.000, 0.000, 0.000, 18:46:43.021, 1577144803021
42, -187500.02, 83104.37, 87165.74, 102901.98, 101274.61, 85575.39, -187500.02, -187500.02, 0.000, 0.000, 0.000, 18:46:43.021, 1577144803021
43, -187500.02, 83278.91, 87262.59, 102991.85, 101682.91, 87378.58, -187500.02, -187500.02, 0.000, 0.000, 0.000, 18:46:43.021, 1577144803021
44, -187500.02, 82341.14, 86230.75, 101952.92, 100780.08, 87238.19, -187500.02, -187500.02, 0.182, 0.286, 0.980, 18:46:43.021, 1577144803021
45, -187500.02, 82132.84, 86078.24, 101807.03, 100407.90, 85865.88, -187500.02, -187500.02, 0.000, 0.000, 0.000, 18:46:43.021, 1577144803021
46, -187500.02, 82944.51, 87000.16, 102737.53, 101114.44, 85435.80, -187500.02, -187500.02, 0.000, 0.000, 0.000, 18:46:43.021, 1577144803021
47, -187500.02, 83371.69, 87383.83, 103114.78, 101743.84, 87100.79, -187500.02, -187500.02, 0.000, 0.000, 0.000, 18:46:43.021, 1577144803021
48, -187500.02, 82458.71, 86349.68, 102074.06, 100928.09, 87434.48, -187500.02, -187500.02, 0.000, 0.000, 0.000, 18:46:43.021, 1577144803021
49, -187500.02, 82076.19, 86005.55, 101735.50, 100393.70, 86056.74, -187500.02, -187500.02, 0.000, 0.000, 0.000, 18:46:43.021, 1577144803021
50, -187500.02, 82746.63, 86788.02, 102525.91, 100923.20, 85343.38, -187500.02, -187500.02, 0.000, 0.000, 0.000, 18:46:43.021, 1577144803021
51, -187500.02, 83405.51, 87439.80, 103175.45, 101733.42, 86756.20, -187500.02, -187500.02, 0.000, 0.000, 0.000, 18:46:43.021, 1577144803021
52, -187500.02, 82630.75, 86527.80, 102254.17, 101113.99, 87596.82, -187500.02, -187500.02, 0.000, 0.000, 0.000, 18:46:43.021, 1577144803021
53, -187500.02, 82043.13, 85958.75, 101691.11, 100402.58, 86265.82, -187500.02, -187500.02, 0.000, 0.000, 0.000, 18:46:43.021, 1577144803021
54, -187500.02, 82592.27, 86613.74, 102352.63, 100786.96, 85359.14, -187500.02, -187500.02, 0.186, 0.282, 0.980, 18:46:43.021, 1577144803021
55, -187500.02, 83406.34, 87451.84, 103188.70, 101679.55, 86394.05, -187500.02, -187500.02, 0.000, 0.000, 0.000, 18:46:43.021, 1577144803021
56, -187500.02, 82803.13, 86714.62, 102441.30, 101288.23, 87668.79, -187500.02, -187500.02, 0.000, 0.000, 0.000, 18:46:43.021, 1577144803021
57, -187500.02, 82077.01, 85976.01, 101703.97, 100458.64, 86507.48, -187500.02, -187500.02, 0.000, 0.000, 0.000, 18:46:43.021, 1577144803021
58, -187500.02, 82425.38, 86430.28, 102167.63, 100657.86, 85433.62, -187500.02, -187500.02, 0.000, 0.000, 0.000, 18:46:43.021, 1577144803021
59, -187500.02, 83328.51, 87394.55, 103134.03, 101586.77, 86062.22, -187500.02, -187500.02, 0.000, 0.000, 0.000, 18:46:43.021, 1577144803021
60, -187500.02, 82988.25, 86923.98, 102649.04, 101473.36, 87670.53, -187500.02, -187500.02, 0.000, 0.000, 0.000, 18:46:43.021, 1577144803021
61, -187500.02, 82128.46, 86021.45, 101745.56, 100544.42, 86754.25, -187500.02, -187500.02, 0.000, 0.000, 0.000, 18:46:43.021, 1577144803021
62, -187500.02, 82285.62, 86267.09, 101999.52, 100535.53, 85536.08, -187500.02, -187500.02, 0.000, 0.000, 0.000, 18:46:43.021, 1577144803021
63, -187500.02, 83214.73, 87283.52, 103022.92, 101440.66, 85765.52, -187500.02, -187500.02, 0.000, 0.000, 0.000, 18:46:43.021, 1577144803021
64, -187500.02, 83156.82, 87118.27, 102846.52, 101619.54, 87557.23, -187500.02, -187500.02, 0.186, 0.284, 0.978, 18:46:43.021, 1577144803021
65, -187500.02, 82223.75, 86105.24, 101830.16, 100664.01, 87009.03, -187500.02, -187500.02, 0.000, 0.000, 0.000, 18:46:43.021, 1577144803021
66, -187500.02, 82176.84, 86138.01, 101869.91, 100462.28, 85690.33, -187500.02, -187500.02, 0.000, 0.000, 0.000, 18:46:43.021, 1577144803021
67, -187500.02, 83073.01, 87143.03, 102880.25, 101275.41, 85540.95, -187500.02, -187500.02, 0.000, 0.000, 0.000, 18:46:43.021, 1577144803021
68, -187500.02, 83277.03, 87273.45, 103003.00, 101707.09, 87334.70, -187500.02, -187500.02, 0.000, 0.000, 0.000, 18:46:43.021, 1577144803021
69, -187500.02, 82338.91, 86231.53, 101955.76, 100817.70, 87249.98, -187500.02, -187500.02, 0.000, 0.000, 0.000, 18:46:43.021, 1577144803021
70, -187500.02, 82105.20, 86055.06, 101785.66, 100428.59, 85873.05, -187500.02, -187500.02, 0.000, 0.000, 0.000, 18:46:43.021, 1577144803021
71, -187500.02, 82906.82, 86965.63, 102704.27, 101110.19, 85405.66, -187500.02, -187500.02, 0.000, 0.000, 0.000, 18:46:43.021, 1577144803021
72, -187500.02, 83372.14, 87389.80, 103122.85, 101768.77, 87056.31, -187500.02, -187500.02, 0.000, 0.000, 0.000, 18:46:43.021, 1577144803021
73, -187500.02, 82482.77, 86377.62, 102102.67, 100985.80, 87475.29, -187500.02, -187500.02, 0.000, 0.000, 0.000, 18:46:43.022, 1577144803022
74, -187500.02, 82038.41, 85968.45, 101697.39, 100387.11, 86063.89, -187500.02, -187500.02, 0.182, 0.286, 0.978, 18:46:43.022, 1577144803022
75, -187500.02, 82718.69, 86762.00, 102498.59, 100927.09, 85336.48, -187500.02, -187500.02, 0.000, 0.000, 0.000, 18:46:43.022, 1577144803022
76, -187500.02, 83386.16, 87432.02, 103166.51, 101753.50, 86706.34, -187500.02, -187500.02, 0.000, 0.000, 0.000, 18:46:43.022, 1577144803022
77, -187500.02, 82633.86, 86544.01, 102268.23, 101156.44, 87607.21, -187500.02, -187500.02, 0.000, 0.000, 0.000, 18:46:43.022, 1577144803022
78, -187500.02, 82035.73, 85953.48, 101678.73, 100425.87, 86290.88, -187500.02, -187500.02, 0.000, 0.000, 0.000, 18:46:43.022, 1577144803022
79, -187500.02, 82529.01, 86554.18, 102289.02, 100763.52, 85346.87, -187500.02, -187500.02, 0.000, 0.000, 0.000, 18:46:43.022, 1577144803022
80, -187500.02, 83364.65, 87420.20, 103158.23, 101673.68, 86334.91, -187500.02, -187500.02, 0.000, 0.000, 0.000, 18:46:43.022, 1577144803022
81, -187500.02, 82809.41, 86729.39, 102455.61, 101329.75, 87668.52, -187500.02, -187500.02, 0.000, 0.000, 0.000, 18:46:43.022, 1577144803022
82, -187500.02, 82063.60, 85969.48, 101693.55, 100474.62, 86521.77, -187500.02, -187500.02, 0.000, 0.000, 0.000, 18:46:43.022, 1577144803022
83, -187500.02, 82388.15, 86390.41, 102124.18, 100637.30, 85423.63, -187500.02, -187500.02, 0.000, 0.000, 0.000, 18:46:43.022, 1577144803022
84, -187500.02, 83300.79, 87368.14, 103106.00, 101574.26, 86009.53, -187500.02, -187500.02, 0.184, 0.284, 0.984, 18:46:43.023, 1577144803023
85, -187500.02, 82976.71, 86918.96, 102648.21, 101489.01, 87641.99, -187500.02, -187500.02, 0.000, 0.000, 0.000, 18:46:43.023, 1577144803023
86, -187500.02, 82116.30, 86008.86, 101737.49, 100556.65, 86770.23, -187500.02, -187500.02, 0.000, 0.000, 0.000, 18:46:43.023, 1577144803023
87, -187500.02, 82256.90, 86233.14, 101971.11, 100532.40, 85551.39, -187500.02, -187500.02, 0.000, 0.000, 0.000, 18:46:43.023, 1577144803023
88, -187500.02, 83169.92, 87236.27, 102980.65, 101411.00, 85713.66, -187500.02, -187500.02, 0.000, 0.000, 0.000, 18:46:43.023, 1577144803023
89, -187500.02, 83144.27, 87106.51, 102841.83, 101627.52, 87517.94, -187500.02, -187500.02, 0.000, 0.000, 0.000, 18:46:43.023, 1577144803023
90, -187500.02, 82212.69, 86090.27, 101822.07, 100677.08, 87031.59, -187500.02, -187500.02, 0.000, 0.000, 0.000, 18:46:43.023, 1577144803023
91, -187500.02, 82149.97, 86106.74, 101845.25, 100457.03, 85706.40, -187500.02, -187500.02, 0.000, 0.000, 0.000, 18:46:43.023, 1577144803023
92, -187500.02, 83051.32, 87106.11, 102850.74, 101264.98, 85525.05, -187500.02, -187500.02, 0.000, 0.000, 0.000, 18:46:43.023, 1577144803023
93, -187500.02, 83289.15, 87272.52, 103008.39, 101722.09, 87306.41, -187500.02, -187500.02, 0.000, 0.000, 0.000, 18:46:43.023, 1577144803023
94, -187500.02, 82333.88, 86210.34, 101941.59, 100819.17, 87267.31, -187500.02, -187500.02, 0.184, 0.290, 0.986, 18:46:43.023, 1577144803023
95, -187500.02, 82064.96, 85998.53, 101735.93, 100403.67, 85873.12, -187500.02, -187500.02, 0.000, 0.000, 0.000, 18:46:43.023, 1577144803023
96, -187500.02, 82859.32, 86903.67, 102648.17, 101077.06, 85377.42, -187500.02, -187500.02, 0.000, 0.000, 0.000, 18:46:43.023, 1577144803023
97, -187500.02, 83345.90, 87347.89, 103088.73, 101742.19, 86980.42, -187500.02, -187500.02, 0.000, 0.000, 0.000, 18:46:43.023, 1577144803023
98, -187500.02, 82484.38, 86364.70, 102096.93, 100995.41, 87474.80, -187500.02, -187500.02, 0.000, 0.000, 0.000, 18:46:43.023, 1577144803023
99, -187500.02, 82035.33, 85948.29, 101685.23, 100399.05, 86088.50, -187500.02, -187500.02, 0.000, 0.000, 0.000, 18:46:43.023, 1577144803023
100, -187500.02, 82679.79, 86706.19, 102452.32, 100907.51, 85326.87, -187500.02, -187500.02, 0.000, 0.000, 0.000, 18:46:43.023, 1577144803023
101, -187500.02, 83376.36, 87407.32, 103152.72, 101744.09, 86649.17, -187500.02, -187500.02, 0.000, 0.000, 0.000, 18:46:43.023, 1577144803023
102, -187500.02, 82635.85, 86527.47, 102263.56, 101166.52, 87604.82, -187500.02, -187500.02, 0.000, 0.000, 0.000, 18:46:43.023, 1577144803023
103, -187500.02, 82011.41, 85909.95, 101649.27, 100415.48, 86308.20, -187500.02, -187500.02, 0.000, 0.000, 0.000, 18:46:43.023, 1577144803023
104, -187500.02, 82498.74, 86502.41, 102251.20, 100744.34, 85346.87, -187500.02, -187500.02, 0.188, 0.286, 0.984, 18:46:43.023, 1577144803023
105, -187500.02, 83361.99, 87402.23, 103150.70, 101673.59, 86294.85, -187500.02, -187500.02, 0.000, 0.000, 0.000, 18:46:43.498, 1577144803498
106, -187500.02, 82839.12, 86742.73, 102479.19, 101360.71, 87681.51, -187500.02, -187500.02, 0.000, 0.000, 0.000, 18:46:43.499, 1577144803499
107, -187500.02, 82059.73, 85942.37, 101678.71, 100483.52, 86557.98, -187500.02, -187500.02, 0.000, 0.000, 0.000, 18:46:43.499, 1577144803499
108, -187500.02, 82365.15, 86349.66, 102095.39, 100634.84, 85449.06, -187500.02, -187500.02, 0.000, 0.000, 0.000, 18:46:43.499, 1577144803499
109, -187500.02, 83311.09, 87352.76, 103101.20, 101572.13, 85978.20, -187500.02, -187500.02, 0.000, 0.000, 0.000, 18:46:43.499, 1577144803499
110, -187500.02, 83017.05, 86939.43, 102679.95, 101522.72, 87647.94, -187500.02, -187500.02, 0.000, 0.000, 0.000, 18:46:43.499, 1577144803499
111, -187500.02, 82142.57, 86013.42, 101749.07, 100595.09, 86826.78, -187500.02, -187500.02, 0.000, 0.000, 0.000, 18:46:43.499, 1577144803499
112, -187500.02, 82248.92, 86205.36, 101949.79, 100539.93, 85579.26, -187500.02, -187500.02, 0.000, 0.000, 0.000, 18:46:43.499, 1577144803499
113, -187500.02, 83193.13, 87241.83, 102993.10, 101437.96, 85716.97, -187500.02, -187500.02, 0.000, 0.000, 0.000, 18:46:43.500, 1577144803500
114, -187500.02, 83192.09, 87137.45, 102878.51, 101668.54, 87512.51, -187500.02, -187500.02, 0.182, 0.290, 0.982, 18:46:43.500, 1577144803500
115, -187500.02, 82239.98, 86101.69, 101838.97, 100713.36, 87077.92, -187500.02, -187500.02, 0.000, 0.000, 0.000, 18:46:43.500, 1577144803500
116, -187500.02, 82146.62, 86080.14, 101824.66, 100460.54, 85737.38, -187500.02, -187500.02, 0.000, 0.000, 0.000, 18:46:43.500, 1577144803500
117, -187500.02, 83023.90, 87061.43, 102812.74, 101245.33, 85496.65, -187500.02, -187500.02, 0.000, 0.000, 0.000, 18:46:43.500, 1577144803500
118, -187500.02, 83304.81, 87278.59, 103022.27, 101748.69, 87276.77, -187500.02, -187500.02, 0.000, 0.000, 0.000, 18:46:43.500, 1577144803500
119, -187500.02, 82375.63, 86236.11, 101973.17, 100872.44, 87323.75, -187500.02, -187500.02, 0.000, 0.000, 0.000, 18:46:43.500, 1577144803500
120, -187500.02, 82091.49, 86005.98, 101749.09, 100435.13, 85929.00, -187500.02, -187500.02, 0.000, 0.000, 0.000, 18:46:43.500, 1577144803500
121, -187500.02, 82877.09, 86904.20, 102655.28, 101097.14, 85400.42, -187500.02, -187500.02, 0.000, 0.000, 0.000, 18:46:43.500, 1577144803500
122, -187500.02, 83405.29, 87397.55, 103144.13, 101800.46, 86988.25, -187500.02, -187500.02, 0.000, 0.000, 0.000, 18:46:43.500, 1577144803500
123, -187500.02, 82526.84, 86390.38, 102129.01, 101041.64, 87516.66, -187500.02, -187500.02, 0.000, 0.000, 0.000, 18:46:43.500, 1577144803500
124, -187500.02, 82072.98, 85963.82, 101706.94, 100440.22, 86150.13, -187500.02, -187500.02, 0.178, 0.286, 0.980, 18:46:43.500, 1577144803500
125, -187500.02, 82704.76, 86703.09, 102454.80, 100921.45, 85355.19, -187500.02, -187500.02, 0.000, 0.000, 0.000, 18:46:43.500, 1577144803500
126, -187500.02, 83409.53, 87420.20, 103174.11, 101766.48, 86624.98, -187500.02, -187500.02, 0.000, 0.000, 0.000, 18:46:43.500, 1577144803500
127, -187500.02, 82710.02, 86585.02, 102324.52, 101238.18, 87660.55, -187500.02, -187500.02, 0.000, 0.000, 0.000, 18:46:43.500, 1577144803500
128, -187500.02, 82068.41, 85943.88, 101685.55, 100462.57, 86375.79, -187500.02, -187500.02, 0.000, 0.000, 0.000, 18:46:43.500, 1577144803500
129, -187500.02, 82526.86, 86506.75, 102258.80, 100760.43, 85380.95, -187500.02, -187500.02, 0.000, 0.000, 0.000, 18:46:43.500, 1577144803500
130, -187500.02, 83402.11, 87425.78, 103179.98, 101700.99, 86276.41, -187500.02, -187500.02, 0.000, 0.000, 0.000, 18:46:43.500, 1577144803500
131, -187500.02, 82911.63, 86799.20, 102540.48, 101425.58, 87717.48, -187500.02, -187500.02, 0.000, 0.000, 0.000, 18:46:43.500, 1577144803500
132, -187500.02, 82113.16, 85973.99, 101714.63, 100534.92, 86630.06, -187500.02, -187500.02, 0.000, 0.000, 0.000, 18:46:43.500, 1577144803500
133, -187500.02, 82370.69, 86331.71, 102081.09, 100632.27, 85484.09, -187500.02, -187500.02, 0.000, 0.000, 0.000, 18:46:43.500, 1577144803500
134, -187500.02, 83318.92, 87349.41, 103097.84, 101570.59, 85959.33, -187500.02, -187500.02, 0.000, 0.000, 0.000, 18:46:43.500, 1577144803500
135, -187500.02, 83072.18, 86983.51, 102721.48, 101568.94, 87654.46, -187500.02, -187500.02, 0.180, 0.288, 0.980, 18:46:43.501, 1577144803501
136, -187500.02, 82155.47, 86005.15, 101742.37, 100600.73, 86858.97, -187500.02, -187500.02, 0.000, 0.000, 0.000, 18:46:43.501, 1577144803501
137, -187500.02, 82256.90, 86192.33, 101937.09, 100539.80, 85611.85, -187500.02, -187500.02, 0.000, 0.000, 0.000, 18:46:43.501, 1577144803501
138, -187500.02, 83191.24, 87224.20, 102973.99, 101420.95, 85689.84, -187500.02, -187500.02, 0.000, 0.000, 0.000, 18:46:43.501, 1577144803501
139, -187500.02, 83221.20, 87159.28, 102900.50, 101690.58, 87499.66, -187500.02, -187500.02, 0.000, 0.000, 0.000, 18:46:43.501, 1577144803501
140, -187500.02, 82272.61, 86126.14, 101862.57, 100749.95, 87130.74, -187500.02, -187500.02, 0.000, 0.000, 0.000, 18:46:43.501, 1577144803501
141, -187500.02, 82157.86, 86077.23, 101820.40, 100472.36, 85777.97, -187500.02, -187500.02, 0.000, 0.000, 0.000, 18:46:43.501, 1577144803501
142, -187500.02, 83035.63, 87058.97, 102808.37, 101246.29, 85498.55, -187500.02, -187500.02, 0.000, 0.000, 0.000, 18:46:43.501, 1577144803501
143, -187500.02, 83344.58, 87303.81, 103045.92, 101770.17, 87255.09, -187500.02, -187500.02, 0.000, 0.000, 0.000, 18:46:43.501, 1577144803501
144, -187500.02, 82399.05, 86243.48, 101980.16, 100889.16, 87352.80, -187500.02, -187500.02, 0.000, 0.000, 0.000, 18:46:43.501, 1577144803501
145, -187500.02, 82072.49, 85972.05, 101715.90, 100415.81, 85946.39, -187500.02, -187500.02, 0.182, 0.284, 0.980, 18:46:43.501, 1577144803501
146, -187500.02, 82845.46, 86858.77, 102609.45, 101060.26, 85377.80, -187500.02, -187500.02, 0.000, 0.000, 0.000, 18:46:43.501, 1577144803501
147, -187500.02, 83421.60, 87408.48, 103152.34, 101802.83, 86944.62, -187500.02, -187500.02, 0.000, 0.000, 0.000, 18:46:43.501, 1577144803501
148, -187500.02, 82566.70, 86422.93, 102158.53, 101074.72, 87550.82, -187500.02, -187500.02, 0.000, 0.000, 0.000, 18:46:43.501, 1577144803501
149, -187500.02, 82066.69, 85950.57, 101693.41, 100438.72, 86179.12, -187500.02, -187500.02, 0.000, 0.000, 0.000, 18:46:43.501, 1577144803501
150, -187500.02, 82686.38, 86682.84, 102433.44, 100907.41, 85364.20, -187500.02, -187500.02, 0.000, 0.000, 0.000, 18:46:43.501, 1577144803501
151, -187500.02, 83448.47, 87455.63, 103206.12, 101781.93, 86598.91, -187500.02, -187500.02, 0.000, 0.000, 0.000, 18:46:43.501, 1577144803501
152, -187500.02, 82739.16, 86606.57, 102346.76, 101256.55, 87675.34, -187500.02, -187500.02, 0.000, 0.000, 0.000, 18:46:43.501, 1577144803501
153, -187500.02, 82075.29, 85944.04, 101687.07, 100471.58, 86410.09, -187500.02, -187500.02, 0.000, 0.000, 0.000, 18:46:43.501, 1577144803501
154, -187500.02, 82517.81, 86497.09, 102246.95, 100756.38, 85399.27, -187500.02, -187500.02, 0.000, 0.000, 0.000, 18:46:43.501, 1577144803501
155, -187500.02, 83395.27, 87422.27, 103173.28, 101689.10, 86239.35, -187500.02, -187500.02, 0.182, 0.286, 0.980, 18:46:43.501, 1577144803501
156, -187500.02, 82923.77, 86815.63, 102556.38, 101445.42, 87717.98, -187500.02, -187500.02, 0.000, 0.000, 0.000, 18:46:43.501, 1577144803501
157, -187500.02, 82105.98, 85967.89, 101708.16, 100540.76, 86659.68, -187500.02, -187500.02, 0.000, 0.000, 0.000, 18:46:43.501, 1577144803501
158, -187500.02, 82352.66, 86311.55, 102060.27, 100617.29, 85498.46, -187500.02, -187500.02, 0.000, 0.000, 0.000, 18:46:43.501, 1577144803501
159, -187500.02, 83314.05, 87348.73, 103100.97, 101577.97, 85936.29, -187500.02, -187500.02, 0.000, 0.000, 0.000, 18:46:43.501, 1577144803501
160, -187500.02, 83098.71, 87017.33, 102757.94, 101610.71, 87664.03, -187500.02, -187500.02, 0.000, 0.000, 0.000, 18:46:43.501, 1577144803501
161, -187500.02, 82183.02, 86042.08, 101780.03, 100646.68, 86918.80, -187500.02, -187500.02, 0.000, 0.000, 0.000, 18:46:43.501, 1577144803501
162, -187500.02, 82246.62, 86189.42, 101934.08, 100545.25, 85644.15, -187500.02, -187500.02, 0.000, 0.000, 0.000, 18:46:43.501, 1577144803501
163, -187500.02, 83177.56, 87217.04, 102968.18, 101419.67, 85673.41, -187500.02, -187500.02, 0.000, 0.000, 0.000, 18:46:43.501, 1577144803501
164, -187500.02, 83268.65, 87211.99, 102953.34, 101741.02, 87503.48, -187500.02, -187500.02, 0.000, 0.000, 0.000, 18:46:43.501, 1577144803501
165, -187500.02, 82301.11, 86157.75, 101894.58, 100792.04, 87179.04, -187500.02, -187500.02, 0.184, 0.286, 0.980, 18:46:43.501, 1577144803501
166, -187500.02, 82163.36, 86087.31, 101825.58, 100490.96, 85815.74, -187500.02, -187500.02, 0.000, 0.000, 0.000, 18:46:43.501, 1577144803501
167, -187500.02, 83022.87, 87058.45, 102802.87, 101246.29, 85489.14, -187500.02, -187500.02, 0.000, 0.000, 0.000, 18:46:43.501, 1577144803501
168, -187500.02, 83359.73, 87336.94, 103075.06, 101798.24, 87229.65, -187500.02, -187500.02, 0.000, 0.000, 0.000, 18:46:43.501, 1577144803501
169, -187500.02, 82432.78, 86294.70, 102024.31, 100943.58, 87407.77, -187500.02, -187500.02, 0.000, 0.000, 0.000, 18:46:43.501, 1577144803501
170, -187500.02, 82079.96, 85987.76, 101722.96, 100439.48, 85992.16, -187500.02, -187500.02, 0.000, 0.000, 0.000, 18:46:43.501, 1577144803501
171, -187500.02, 82833.51, 86855.91, 102599.29, 101058.67, 85379.64, -187500.02, -187500.02, 0.000, 0.000, 0.000, 18:46:43.501, 1577144803501
172, -187500.02, 83447.82, 87457.45, 103196.41, 101840.09, 86921.75, -187500.02, -187500.02, 0.000, 0.000, 0.000, 18:46:43.502, 1577144803502
173, -187500.02, 82610.93, 86483.44, 102211.87, 101135.02, 87597.02, -187500.02, -187500.02, 0.000, 0.000, 0.000, 18:46:43.502, 1577144803502
174, -187500.02, 82068.85, 85964.02, 101696.25, 100455.82, 86210.98, -187500.02, -187500.02, 0.000, 0.000, 0.000, 18:46:43.502, 1577144803502
175, -187500.02, 82663.34, 86670.38, 102410.73, 100897.70, 85363.86, -187500.02, -187500.02, 0.182, 0.290, 0.978, 18:46:43.502, 1577144803502
176, -187500.02, 83448.13, 87469.08, 103209.06, 101786.24, 86563.56, -187500.02, -187500.02, 0.000, 0.000, 0.000, 18:46:43.502, 1577144803502
177, -187500.02, 82784.13, 86664.26, 102394.41, 101314.89, 87713.36, -187500.02, -187500.02, 0.000, 0.000, 0.000, 18:46:43.502, 1577144803502
178, -187500.02, 82082.95, 85970.15, 101703.61, 100507.77, 86454.63, -187500.02, -187500.02, 0.000, 0.000, 0.000, 18:46:43.502, 1577144803502
179, -187500.02, 82501.54, 86493.85, 102235.45, 100761.52, 85417.81, -187500.02, -187500.02, 0.000, 0.000, 0.000, 18:46:43.502, 1577144803502
180, -187500.02, 83391.77, 87433.95, 103177.68, 101703.92, 86210.41, -187500.02, -187500.02, 0.000, 0.000, 0.000, 18:46:43.502, 1577144803502
181, -187500.02, 82951.81, 86855.23, 102587.24, 101475.44, 87705.76, -187500.02, -187500.02, 0.000, 0.000, 0.000, 18:46:43.502, 1577144803502
182, -187500.02, 82117.06, 85988.23, 101721.13, 100562.98, 86690.41, -187500.02, -187500.02, 0.000, 0.000, 0.000, 18:46:43.502, 1577144803502
183, -187500.02, 82365.57, 86333.59, 102075.92, 100649.34, 85537.91, -187500.02, -187500.02, 0.000, 0.000, 0.000, 18:46:43.502, 1577144803502
184, -187500.02, 83322.65, 87366.23, 103112.05, 101590.53, 85913.22, -187500.02, -187500.02, 0.000, 0.000, 0.000, 18:46:43.502, 1577144803502
185, -187500.02, 83148.11, 87073.36, 102807.02, 101659.44, 87676.50, -187500.02, -187500.02, 0.186, 0.290, 0.980, 18:46:43.502, 1577144803502
186, -187500.02, 82188.39, 86048.87, 101781.70, 100668.41, 86963.51, -187500.02, -187500.02, 0.000, 0.000, 0.000, 18:46:43.502, 1577144803502
187, -187500.02, 82234.34, 86179.30, 101918.50, 100551.20, 85671.91, -187500.02, -187500.02, 0.000, 0.000, 0.000, 18:46:43.502, 1577144803502
188, -187500.02, 83204.48, 87251.10, 102992.39, 101443.91, 85669.63, -187500.02, -187500.02, 0.000, 0.000, 0.000, 18:46:43.502, 1577144803502
189, -187500.02, 83286.80, 87242.74, 102974.02, 101767.13, 87486.71, -187500.02, -187500.02, 0.000, 0.000, 0.000, 18:46:43.502, 1577144803502
190, -187500.02, 82330.66, 86190.27, 101917.38, 100823.22, 87224.23, -187500.02, -187500.02, 0.000, 0.000, 0.000, 18:46:43.502, 1577144803502
191, -187500.02, 82168.50, 86092.28, 101827.15, 100505.42, 85858.13, -187500.02, -187500.02, 0.000, 0.000, 0.000, 18:46:43.502, 1577144803502
192, -187500.02, 83035.41, 87067.84, 102811.38, 101268.13, 85510.57, -187500.02, -187500.02, 0.000, 0.000, 0.000, 18:46:43.502, 1577144803502
193, -187500.02, 83425.00, 87407.68, 103142.77, 101865.68, 87250.55, -187500.02, -187500.02, 0.000, 0.000, 0.000, 18:46:43.502, 1577144803502
194, -187500.02, 82482.77, 86342.75, 102070.16, 101000.80, 87475.59, -187500.02, -187500.02, 0.000, 0.000, 0.000, 18:46:43.502, 1577144803502
195, -187500.02, 82112.62, 86019.45, 101753.52, 100479.09, 86054.99, -187500.02, -187500.02, 0.182, 0.292, 0.980, 18:46:43.503, 1577144803503
196, -187500.02, 82853.51, 86875.30, 102617.05, 101081.98, 85411.27, -187500.02, -187500.02, 0.000, 0.000, 0.000, 18:46:43.503, 1577144803503
197, -187500.02, 83472.45, 87477.48, 103215.30, 101858.75, 86902.33, -187500.02, -187500.02, 0.000, 0.000, 0.000, 18:46:43.503, 1577144803503
198, -187500.02, 82644.55, 86516.23, 102244.70, 101181.56, 87653.50, -187500.02, -187500.02, 0.000, 0.000, 0.000, 18:46:43.503, 1577144803503
199, -187500.02, 82090.29, 85981.52, 101712.34, 100484.01, 86280.34, -187500.02, -187500.02, 0.000, 0.000, 0.000, 18:46:43.503, 1577144803503
200, -187500.02, 82660.01, 86667.12, 102407.80, 100914.16, 85395.13, -187500.02, -187500.02, 0.000, 0.000, 0.000, 18:46:43.503, 1577144803503
201, -187500.02, 83458.41, 87492.10, 103234.41, 101825.47, 86547.78, -187500.02, -187500.02, 0.000, 0.000, 0.000, 18:46:43.503, 1577144803503
202, -187500.02, 82834.35, 86719.40, 102447.52, 101379.82, 87760.81, -187500.02, -187500.02, 0.000, 0.000, 0.000, 18:46:43.503, 1577144803503
203, -187500.02, 82108.70, 85984.01, 101714.80, 100533.80, 86515.53, -187500.02, -187500.02, 0.000, 0.000, 0.000, 18:46:43.503, 1577144803503
204, -187500.02, 82505.63, 86488.44, 102225.55, 100768.27, 85452.91, -187500.02, -187500.02, 0.000, 0.000, 0.000, 18:46:43.503, 1577144803503
205, -187500.02, 83399.48, 87441.50, 103181.75, 101711.68, 86181.82, -187500.02, -187500.02, 0.182, 0.288, 0.980, 18:46:43.503, 1577144803503
206, -187500.02, 82989.48, 86898.86, 102629.77, 101534.23, 87752.21, -187500.02, -187500.02, 0.000, 0.000, 0.000, 18:46:43.503, 1577144803503
207, -187500.02, 82157.43, 86018.92, 101750.41, 100607.45, 86756.75, -187500.02, -187500.02, 0.000, 0.000, 0.000, 18:46:43.503, 1577144803503
208, -187500.02, 82357.19, 86317.41, 102057.95, 100651.65, 85560.48, -187500.02, -187500.02, 0.000, 0.000, 0.000, 18:46:43.503, 1577144803503
209, -187500.02, 83303.65, 87349.38, 103093.39, 101580.18, 85877.92, -187500.02, -187500.02, 0.000, 0.000, 0.000, 18:46:43.503, 1577144803503
210, -187500.02, 83169.61, 87101.80, 102835.48, 101689.21, 87661.08, -187500.02, -187500.02, 0.000, 0.000, 0.000, 18:46:43.503, 1577144803503
211, -187500.02, 82226.21, 86094.13, 101824.44, 100716.84, 87018.73, -187500.02, -187500.02, 0.000, 0.000, 0.000, 18:46:43.503, 1577144803503
212, -187500.02, 82242.28, 86186.63, 101924.13, 100568.45, 85711.92, -187500.02, -187500.02, 0.000, 0.000, 0.000, 18:46:43.503, 1577144803503
213, -187500.02, 83158.57, 87204.61, 102949.47, 101418.09, 85637.60, -187500.02, -187500.02, 0.000, 0.000, 0.000, 18:46:43.503, 1577144803503
214, -187500.02, 83309.17, 87268.23, 103004.26, 101798.85, 87464.07, -187500.02, -187500.02, 0.000, 0.000, 0.000, 18:46:43.503, 1577144803503
215, -187500.02, 82339.42, 86199.08, 101929.77, 100858.31, 87272.16, -187500.02, -187500.02, 0.186, 0.294, 0.982, 18:46:43.503, 1577144803503
216, -187500.02, 82151.73, 86075.41, 101811.03, 100507.14, 85883.13, -187500.02, -187500.02, 0.000, 0.000, 0.000, 18:46:43.503, 1577144803503
217, -187500.02, 82999.00, 87034.52, 102777.63, 101237.82, 85473.96, -187500.02, -187500.02, 0.000, 0.000, 0.000, 18:46:43.503, 1577144803503
218, -187500.02, 83419.79, 87412.71, 103151.89, 101871.27, 87193.34, -187500.02, -187500.02, 0.000, 0.000, 0.000, 18:46:43.503, 1577144803503
219, -187500.02, 82490.12, 86357.84, 102089.82, 101028.07, 87496.70, -187500.02, -187500.02, 0.000, 0.000, 0.000, 18:46:43.503, 1577144803503
220, -187500.02, 82076.85, 85989.70, 101725.31, 100475.76, 86069.86, -187500.02, -187500.02, 0.000, 0.000, 0.000, 18:46:43.503, 1577144803503
221, -187500.02, 82800.52, 86822.53, 102567.57, 101052.79, 85389.54, -187500.02, -187500.02, 0.000, 0.000, 0.000, 18:46:43.503, 1577144803503
222, -187500.02, 83479.05, 87487.95, 103230.55, 101876.09, 86862.09, -187500.02, -187500.02, 0.000, 0.000, 0.000, 18:46:43.503, 1577144803503
223, -187500.02, 82653.62, 86526.57, 102260.30, 101210.46, 87662.22, -187500.02, -187500.02, 0.000, 0.000, 0.000, 18:46:43.503, 1577144803503
224, -187500.02, 82080.95, 85969.99, 101706.09, 100495.18, 86299.37, -187500.02, -187500.02, 0.000, 0.000, 0.000, 18:46:43.503, 1577144803503
225, -187500.02, 82630.69, 86626.84, 102372.10, 100886.30, 85383.05, -187500.02, -187500.02, 0.182, 0.290, 0.982, 18:46:43.981, 1577144803981
226, -187500.02, 83466.84, 87499.55, 103245.45, 101827.52, 86498.74, -187500.02, -187500.02, 0.000, 0.000, 0.000, 18:46:43.981, 1577144803981
227, -187500.02, 82842.06, 86735.52, 102469.85, 101402.10, 87761.40, -187500.02, -187500.02, 0.000, 0.000, 0.000, 18:46:43.981, 1577144803981
228, -187500.02, 82093.77, 85975.78, 101710.00, 100541.54, 86539.56, -187500.02, -187500.02, 0.000, 0.000, 0.000, 18:46:43.981, 1577144803981
229, -187500.02, 82469.95, 86449.13, 102193.31, 100752.34, 85457.11, -187500.02, -187500.02, 0.000, 0.000, 0.000, 18:46:43.982, 1577144803982
230, -187500.02, 83393.59, 87435.77, 103182.09, 101709.71, 86139.93, -187500.02, -187500.02, 0.000, 0.000, 0.000, 18:46:43.982, 1577144803982
231, -187500.02, 83004.83, 86911.98, 102646.94, 101555.73, 87749.19, -187500.02, -187500.02, 0.000, 0.000, 0.000, 18:46:43.982, 1577144803982
232, -187500.02, 82131.33, 85998.27, 101734.84, 100613.60, 86790.46, -187500.02, -187500.02, 0.000, 0.000, 0.000, 18:46:43.982, 1577144803982
233, -187500.02, 82310.12, 86269.70, 102011.66, 100618.45, 85558.36, -187500.02, -187500.02, 0.000, 0.000, 0.000, 18:46:43.982, 1577144803982
234, -187500.02, 83266.99, 87308.08, 103051.57, 101541.67, 85819.14, -187500.02, -187500.02, 0.000, 0.000, 0.000, 18:46:43.982, 1577144803982
235, -187500.02, 83178.41, 87107.38, 102841.78, 101696.43, 87633.72, -187500.02, -187500.02, 0.184, 0.288, 0.982, 18:46:43.982, 1577144803982
236, -187500.02, 82219.19, 86074.73, 101806.52, 100714.05, 87045.70, -187500.02, -187500.02, 0.000, 0.000, 0.000, 18:46:43.982, 1577144803982
237, -187500.02, 82206.88, 86145.88, 101883.74, 100547.69, 85714.87, -187500.02, -187500.02, 0.000, 0.000, 0.000, 18:46:43.982, 1577144803982
238, -187500.02, 83157.41, 87199.20, 102942.92, 101414.66, 85614.35, -187500.02, -187500.02, 0.000, 0.000, 0.000, 18:46:43.982, 1577144803982
239, -187500.02, 83339.77, 87304.08, 103038.99, 101835.73, 87453.45, -187500.02, -187500.02, 0.000, 0.000, 0.000, 18:46:43.982, 1577144803982
240, -187500.02, 82371.52, 86229.00, 101957.26, 100896.53, 87321.20, -187500.02, -187500.02, 0.000, 0.000, 0.000, 18:46:43.982, 1577144803982
241, -187500.02, 82132.98, 86047.20, 101782.30, 100495.01, 85900.23, -187500.02, -187500.02, 0.000, 0.000, 0.000, 18:46:43.982, 1577144803982
242, -187500.02, 82978.08, 87010.38, 102753.76, 101226.22, 85459.05, -187500.02, -187500.02, 0.000, 0.000, 0.000, 18:46:43.982, 1577144803982
243, -187500.02, 83429.38, 87423.28, 103159.82, 101881.13, 87156.63, -187500.02, -187500.02, 0.000, 0.000, 0.000, 18:46:43.982, 1577144803982
244, -187500.02, 82508.71, 86378.60, 102107.26, 101062.58, 87536.49, -187500.02, -187500.02, 0.000, 0.000, 0.000, 18:46:43.983, 1577144803983
245, -187500.02, 82097.09, 86006.25, 101737.90, 100497.55, 86118.85, -187500.02, -187500.02, 0.182, 0.286, 0.980, 18:46:43.983, 1577144803983
246, -187500.02, 82819.31, 86840.10, 102577.92, 101067.99, 85405.74, -187500.02, -187500.02, 0.000, 0.000, 0.000, 18:46:43.983, 1577144803983
247, -187500.02, 83505.98, 87521.09, 103255.83, 101899.59, 86831.07, -187500.02, -187500.02, 0.000, 0.000, 0.000, 18:46:43.983, 1577144803983
248, -187500.02, 82695.06, 86571.14, 102297.20, 101251.72, 87703.93, -187500.02, -187500.02, 0.000, 0.000, 0.000, 18:46:43.983, 1577144803983
249, -187500.02, 82086.31, 85975.71, 101704.39, 100509.82, 86347.05, -187500.02, -187500.02, 0.000, 0.000, 0.000, 18:46:43.983, 1577144803983
250, -187500.02, 82631.55, 86632.74, 102368.98, 100897.41, 85413.26, -187500.02, -187500.02, 0.000, 0.000, 0.000, 18:46:43.983, 1577144803983
251, -187500.02, 83477.23, 87513.58, 103251.29, 101834.81, 86467.16, -187500.02, -187500.02, 0.000, 0.000, 0.000, 18:46:43.983, 1577144803983
252, -187500.02, 82883.38, 86778.84, 102503.15, 101448.33, 87798.50, -187500.02, -187500.02, 0.000, 0.000, 0.000, 18:46:43.983, 1577144803983
253, -187500.02, 82112.05, 85982.87, 101708.23, 100559.66, 86591.84, -187500.02, -187500.02, 0.000, 0.000, 0.000, 18:46:43.983, 1577144803983
254, -187500.02, 82460.48, 86438.80, 102173.76, 100744.49, 85471.23, -187500.02, -187500.02, 0.000, 0.000, 0.000, 18:46:43.983, 1577144803983
255, -187500.02, 83410.16, 87457.08, 103193.95, 101719.12, 86111.08, -187500.02, -187500.02, 0.184, 0.288, 0.980, 18:46:43.983, 1577144803983
0, -187500.02, 83048.53, 86961.47, 102686.68, 101594.51, 87765.55, -187500.02, -187500.02, 0.000, 0.000, 0.000, 18:46:43.983, 1577144803983
1, -187500.02, 82149.34, 86011.77, 101736.66, 100634.30, 86838.49, -187500.02, -187500.02, 0.000, 0.000, 0.000, 18:46:43.983, 1577144803983
2, -187500.02, 82312.24, 86269.33, 102002.63, 100635.95, 85593.63, -187500.02, -187500.02, 0.000, 0.000, 0.000, 18:46:43.983, 1577144803983
3, -187500.02, 83291.13, 87339.98, 103078.13, 101577.34, 85815.48, -187500.02, -187500.02, 0.000, 0.000, 0.000, 18:46:43.983, 1577144803983
4, -187500.02, 83237.02, 87179.35, 102904.57, 101765.21, 87650.87, -187500.02, -187500.02, 0.000, 0.000, 0.000, 18:46:43.983, 1577144803983
5, -187500.02, 82258.51, 86120.80, 101843.20, 100769.82, 87104.99, -187500.02, -187500.02, 0.000, 0.000, 0.000, 18:46:43.983, 1577144803983
6, -187500.02, 82203.41, 86143.27, 101873.95, 100555.87, 85749.18, -187500.02, -187500.02, 0.000, 0.000, 0.000, 18:46:43.983, 1577144803983
7, -187500.02, 83138.20, 87181.48, 102919.68, 101400.80, 85588.05, -187500.02, -187500.02, 0.000, 0.000, 0.000, 18:46:43.983, 1577144803983
8, -187500.02, 83360.45, 87325.45, 103055.93, 101855.20, 87422.38, -187500.02, -187500.02, 0.000, 0.000, 0.000, 18:46:43.983, 1577144803983
9, -187500.02, 82377.30, 86233.77, 101958.10, 100919.42, 87356.74, -187500.02, -187500.02, 0.182, 0.284, 0.978, 18:46:43.983, 1577144803983
10, -187500.02, 82123.34, 86043.02, 101771.18, 100506.18, 85933.24, -187500.02, -187500.02, 0.000, 0.000, 0.000, 18:46:43.983, 1577144803983
11, -187500.02, 82953.84, 86985.99, 102722.60, 101211.89, 85445.75, -187500.02, -187500.02, 0.000, 0.000, 0.000, 18:46:43.983, 1577144803983
12, -187500.02, 83461.41, 87452.00, 103185.41, 101913.29, 87136.30, -187500.02, -187500.02, 0.000, 0.000, 0.000, 18:46:43.983, 1577144803983
13, -187500.02, 82549.08, 86406.25, 102130.44, 101101.14, 87582.23, -187500.02, -187500.02, 0.000, 0.000, 0.000, 18:46:43.983, 1577144803983
14, -187500.02, 82081.48, 85977.73, 101706.23, 100487.05, 86138.21, -187500.02, -187500.02, 0.000, 0.000, 0.000, 18:46:43.983, 1577144803983
15, -187500.02, 82769.78, 86781.27, 102516.12, 101026.38, 85376.82, -187500.02, -187500.02, 0.000, 0.000, 0.000, 18:46:43.983, 1577144803983
16, -187500.02, 83502.12, 87518.14, 103250.95, 101901.06, 86782.41, -187500.02, -187500.02, 0.000, 0.000, 0.000, 18:46:43.984, 1577144803984
17, -187500.02, 82720.30, 86596.87, 102319.69, 101291.30, 87736.49, -187500.02, -187500.02, 0.000, 0.000, 0.000, 18:46:43.984, 1577144803984
18, -187500.02, 82074.93, 85963.63, 101690.91, 100516.64, 86380.34, -187500.02, -187500.02, 0.000, 0.000, 0.000, 18:46:43.984, 1577144803984
19, -187500.02, 82591.03, 86586.14, 102323.38, 100865.95, 85400.63, -187500.02, -187500.02, 0.000, 0.000, 0.000, 18:46:43.984, 1577144803984
20, -187500.02, 83468.07, 87504.84, 103242.97, 101827.52, 86409.70, -187500.02, -187500.02, 0.184, 0.278, 0.978, 18:46:43.984, 1577144803984
21, -187500.02, 82902.23, 86796.42, 102522.73, 101471.04, 87804.38, -187500.02, -187500.02, 0.000, 0.000, 0.000, 18:46:43.984, 1577144803984
22, -187500.02, 82099.61, 85973.68, 101700.79, 100566.17, 86624.65, -187500.02, -187500.02, 0.000, 0.000, 0.000, 18:46:43.984, 1577144803984
23, -187500.02, 82419.84, 86399.46, 102135.98, 100725.49, 85475.84, -187500.02, -187500.02, 0.000, 0.000, 0.000, 18:46:43.984, 1577144803984
24, -187500.02, 83398.09, 87447.22, 103186.55, 101713.33, 86069.50, -187500.02, -187500.02, 0.000, 0.000, 0.000, 18:46:43.984, 1577144803984
25, -187500.02, 83078.34, 86998.30, 102727.81, 101640.84, 87765.98, -187500.02, -187500.02, 0.000, 0.000, 0.000, 18:46:43.984, 1577144803984
26, -187500.02, 82150.80, 86017.83, 101746.50, 100655.06, 86884.18, -187500.02, -187500.02, 0.000, 0.000, 0.000, 18:46:43.984, 1577144803984
27, -187500.02, 82279.77, 86236.98, 101971.88, 100610.20, 85605.75, -187500.02, -187500.02, 0.000, 0.000, 0.000, 18:46:43.984, 1577144803984
28, -187500.02, 83269.81, 87317.69, 103058.15, 101549.85, 85776.56, -187500.02, -187500.02, 0.000, 0.000, 0.000, 18:46:43.984, 1577144803984
29, -187500.02, 83246.84, 87189.39, 102921.13, 101777.91, 87628.11, -187500.02, -187500.02, 0.000, 0.000, 0.000, 18:46:43.984, 1577144803984
30, -187500.02, 82245.77, 86110.16, 101838.97, 100784.88, 87145.90, -187500.02, -187500.02, 0.180, 0.282, 0.982, 18:46:43.984, 1577144803984
31, -187500.02, 82172.61, 86103.68, 101837.20, 100529.47, 85758.63, -187500.02, -187500.02, 0.000, 0.000, 0.000, 18:46:43.984, 1577144803984
32, -187500.02, 83092.85, 87130.52, 102871.62, 101358.30, 85543.68, -187500.02, -187500.02, 0.000, 0.000, 0.000, 18:46:43.984, 1577144803984
33, -187500.02, 83368.74, 87335.39, 103067.24, 101862.93, 87385.05, -187500.02, -187500.02, 0.000, 0.000, 0.000, 18:46:43.984, 1577144803984
34, -187500.02, 82382.78, 86237.19, 101963.54, 100933.68, 87389.71, -187500.02, -187500.02, 0.000, 0.000, 0.000, 18:46:43.984, 1577144803984
35, -187500.02, 82104.57, 86019.88, 101752.80, 100495.52, 85959.38, -187500.02, -187500.02, 0.000, 0.000, 0.000, 18:46:43.984, 1577144803984
36, -187500.02, 82920.39, 86953.38, 102695.63, 101187.41, 85429.15, -187500.02, -187500.02, 0.000, 0.000, 0.000, 18:46:43.984, 1577144803984
37, -187500.02, 83458.80, 87461.66, 103199.25, 101919.08, 87092.59, -187500.02, -187500.02, 0.000, 0.000, 0.000, 18:46:43.984, 1577144803984
38, -187500.02, 82547.34, 86411.41, 102141.63, 101119.78, 87605.91, -187500.02, -187500.02, 0.000, 0.000, 0.000, 18:46:43.984, 1577144803984
39, -187500.02, 82061.50, 85961.54, 101695.13, 100485.39, 86169.21, -187500.02, -187500.02, 0.000, 0.000, 0.000, 18:46:43.984, 1577144803984
40, -187500.02, 82731.72, 86749.42, 102492.16, 101008.45, 85378.54, -187500.02, -187500.02, 0.182, 0.288, 0.982, 18:46:43.985, 1577144803985
41, -187500.02, 83485.57, 87505.31, 103246.86, 101891.34, 86726.84, -187500.02, -187500.02, 0.000, 0.000, 0.000, 18:46:43.985, 1577144803985
42, -187500.02, 82717.23, 86593.52, 102323.94, 101294.98, 87739.78, -187500.02, -187500.02, 0.000, 0.000, 0.000, 18:46:43.985, 1577144803985
43, -187500.02, 82057.38, 85939.37, 101672.47, 100508.66, 86398.20, -187500.02, -187500.02, 0.000, 0.000, 0.000, 18:46:43.985, 1577144803985
44, -187500.02, 82575.68, 86572.26, 102314.57, 100875.12, 85423.67, -187500.02, -187500.02, 0.000, 0.000, 0.000, 18:46:43.985, 1577144803985
45, -187500.02, 83474.35, 87511.52, 103254.64, 101839.10, 86379.19, -187500.02, -187500.02, 0.000, 0.000, 0.000, 18:46:43.985, 1577144803985
46, -187500.02, 82921.41, 86817.93, 102549.27, 101506.63, 87813.32, -187500.02, -187500.02, 0.000, 0.000, 0.000, 18:46:43.985, 1577144803985
47, -187500.02, 82094.52, 85964.49, 101698.13, 100580.61, 86656.33, -187500.02, -187500.02, 0.000, 0.000, 0.000, 18:46:43.985, 1577144803985
48, -187500.02, 82405.07, 86378.96, 102120.78, 100726.66, 85499.82, -187500.02, -187500.02, 0.000, 0.000, 0.000, 18:46:43.985, 1577144803985
49, -187500.02, 83400.70, 87445.52, 103189.24, 101719.86, 86042.66, -187500.02, -187500.02, 0.000, 0.000, 0.000, 18:46:43.985, 1577144803985
50, -187500.02, 83118.60, 87038.77, 102772.94, 101686.02, 87773.04, -187500.02, -187500.02, 0.180, 0.288, 0.984, 18:46:43.985, 1577144803985
51, -187500.02, 82162.06, 86023.05, 101756.00, 100681.26, 86920.92, -187500.02, -187500.02, 0.000, 0.000, 0.000, 18:46:43.985, 1577144803985
52, -187500.02, 82269.28, 86215.21, 101955.47, 100611.01, 85626.98, -187500.02, -187500.02, 0.000, 0.000, 0.000, 18:46:43.985, 1577144803985
53, -187500.02, 83278.23, 87322.07, 103070.48, 101572.90, 85767.06, -187500.02, -187500.02, 0.000, 0.000, 0.000, 18:46:43.985, 1577144803985
54, -187500.02, 83301.84, 87246.88, 102984.38, 101842.99, 87638.33, -187500.02, -187500.02, 0.000, 0.000, 0.000, 18:46:43.985, 1577144803985
55, -187500.02, 82290.27, 86141.95, 101874.66, 100823.82, 87194.17, -187500.02, -187500.02, 0.000, 0.000, 0.000, 18:46:43.985, 1577144803985
56, -187500.02, 82184.03, 86109.69, 101848.73, 100551.20, 85796.59, -187500.02, -187500.02, 0.000, 0.000, 0.000, 18:46:43.985, 1577144803985
57, -187500.02, 83107.72, 87146.66, 102894.15, 101384.91, 85551.12, -187500.02, -187500.02, 0.000, 0.000, 0.000, 18:46:43.985, 1577144803985
58, -187500.02, 83424.44, 87395.56, 103136.06, 101922.59, 87386.40, -187500.02, -187500.02, 0.000, 0.000, 0.000, 18:46:43.986, 1577144803986
59, -187500.02, 82432.47, 86286.98, 102021.90, 100999.02, 87449.55, -187500.02, -187500.02, 0.000, 0.000, 0.000, 18:46:43.986, 1577144803986
60, -187500.02, 82092.05, 85996.23, 101738.70, 100504.86, 85985.23, -187500.02, -187500.02, 0.182, 0.294, 0.980, 18:46:43.986, 1577144803986
61, -187500.02, 82913.84, 86935.81, 102686.62, 101192.73, 85427.65, -187500.02, -187500.02, 0.000, 0.000, 0.000, 18:46:43.986, 1577144803986
62, -187500.02, 83505.66, 87500.39, 103246.57, 101965.88, 87076.60, -187500.02, -187500.02, 0.000, 0.000, 0.000, 18:46:43.986, 1577144803986
63, -187500.02, 82595.80, 86454.63, 102193.40, 101182.52, 87657.17, -187500.02, -187500.02, 0.000, 0.000, 0.000, 18:46:43.986, 1577144803986
64, -187500.02, 82065.43, 85958.16, 101697.13, 100503.09, 86205.45, -187500.02, -187500.02, 0.000, 0.000, 0.000, 18:46:43.986, 1577144803986
65, -187500.02, 82734.84, 86735.63, 102482.95, 101008.89, 85386.88, -187500.02, -187500.02, 0.000, 0.000, 0.000, 18:46:43.986, 1577144803986
66, -187500.02, 83525.36, 87539.46, 103288.32, 101932.94, 86707.13, -187500.02, -187500.02, 0.000, 0.000, 0.000, 18:46:43.986, 1577144803986
67, -187500.02, 82783.05, 86663.16, 102402.68, 101382.95, 87794.32, -187500.02, -187500.02, 0.000, 0.000, 0.000, 18:46:43.986, 1577144803986
68, -187500.02, 82071.53, 85954.03, 101695.07, 100544.65, 86452.92, -187500.02, -187500.02, 0.000, 0.000, 0.000, 18:46:43.986, 1577144803986
69, -187500.02, 82540.50, 86532.83, 102282.05, 100846.69, 85420.77, -187500.02, -187500.02, 0.000, 0.000, 0.000, 18:46:43.986, 1577144803986
70, -187500.02, 83479.31, 87517.16, 103268.63, 101840.87, 86330.99, -187500.02, -187500.02, 0.184, 0.290, 0.978, 18:46:43.986, 1577144803986
71, -187500.02, 82963.86, 86864.80, 102607.55, 101563.93, 87834.44, -187500.02, -187500.02, 0.000, 0.000, 0.000, 18:46:43.986, 1577144803986
72, -187500.02, 82108.51, 85977.03, 101718.78, 100610.52, 86707.82, -187500.02, -187500.02, 0.000, 0.000, 0.000, 18:46:43.986, 1577144803986
73, -187500.02, 82398.20, 86366.40, 102118.26, 100726.13, 85531.85, -187500.02, -187500.02, 0.000, 0.000, 0.000, 18:46:43.986, 1577144803986
74, -187500.02, 83390.73, 87439.06, 103197.20, 101719.81, 86010.63, -187500.02, -187500.02, 0.000, 0.000, 0.000, 18:46:43.986, 1577144803986
75, -187500.02, 83159.84, 87080.67, 102828.37, 101736.55, 87786.32, -187500.02, -187500.02, 0.000, 0.000, 0.000, 18:46:43.986, 1577144803986
76, -187500.02, 82178.33, 86033.91, 101779.63, 100706.18, 86972.78, -187500.02, -187500.02, 0.000, 0.000, 0.000, 18:46:43.987, 1577144803987
77, -187500.02, 82252.14, 86201.02, 101954.30, 100607.88, 85656.02, -187500.02, -187500.02, 0.000, 0.000, 0.000, 18:46:43.987, 1577144803987
78, -187500.02, 83229.91, 87276.25, 103038.99, 101530.07, 85717.28, -187500.02, -187500.02, 0.000, 0.000, 0.000, 18:46:43.987, 1577144803987
79, -187500.02, 83316.88, 87259.40, 103009.59, 101844.34, 87602.43, -187500.02, -187500.02, 0.000, 0.000, 0.000, 18:46:43.987, 1577144803987
80, -187500.02, 82291.34, 86142.75, 101889.55, 100833.37, 87231.97, -187500.02, -187500.02, 0.180, 0.290, 0.982, 18:46:43.987, 1577144803987
81, -187500.02, 82150.98, 86073.64, 101827.70, 100520.22, 85812.95, -187500.02, -187500.02, 0.000, 0.000, 0.000, 18:46:43.987, 1577144803987
82, -187500.02, 83086.21, 87119.81, 102883.31, 101365.90, 85537.28, -187500.02, -187500.02, 0.000, 0.000, 0.000, 18:46:43.987, 1577144803987
83, -187500.02, 83448.55, 87424.27, 103182.20, 101950.86, 87368.00, -187500.02, -187500.02, 0.000, 0.000, 0.000, 18:46:43.987, 1577144803987
84, -187500.02, 82452.68, 86314.03, 102066.22, 101030.28, 87499.14, -187500.02, -187500.02, 0.000, 0.000, 0.000, 18:46:43.987, 1577144803987
85, -187500.02, 82091.20, 85997.20, 101757.77, 100505.24, 86030.88, -187500.02, -187500.02, 0.000, 0.000, 0.000, 18:46:43.987, 1577144803987
86, -187500.02, 82891.24, 86912.09, 102683.42, 101164.75, 85421.91, -187500.02, -187500.02, 0.000, 0.000, 0.000, 18:46:43.987, 1577144803987
87, -187500.02, 83502.41, 87501.31, 103270.82, 101954.08, 87023.97, -187500.02, -187500.02, 0.000, 0.000, 0.000, 18:46:43.987, 1577144803987
88, -187500.02, 82611.59, 86471.43, 102233.81, 101202.57, 87686.41, -187500.02, -187500.02, 0.000, 0.000, 0.000, 18:46:43.987, 1577144803987
89, -187500.02, 82055.76, 85939.64, 101706.47, 100494.31, 86237.90, -187500.02, -187500.02, 0.000, 0.000, 0.000, 18:46:43.987, 1577144803987
90, -187500.02, 82704.91, 86710.04, 102484.66, 100987.46, 85392.29, -187500.02, -187500.02, 0.180, 0.284, 0.980, 18:46:44.459, 1577144804459
91, -187500.02, 83530.43, 87553.81, 103327.71, 101927.59, 86661.42, -187500.02, -187500.02, 0.000, 0.000, 0.000, 18:46:44.460, 1577144804460
92, -187500.02, 82797.32, 86673.09, 102438.20, 101389.90, 87803.55, -187500.02, -187500.02, 0.000, 0.000, 0.000, 18:46:44.460, 1577144804460
93, -187500.02, 82061.59, 85932.02, 101700.97, 100537.34, 86488.24, -187500.02, -187500.02, 0.000, 0.000, 0.000, 18:46:44.460, 1577144804460
94, -187500.02, 82515.17, 86498.59, 102276.75, 100824.42, 85436.61, -187500.02, -187500.02, 0.000, 0.000, 0.000, 18:46:44.460, 1577144804460
95, -187500.02, 83474.76, 87517.56, 103294.76, 101830.77, 86293.42, -187500.02, -187500.02, 0.000, 0.000, 0.000, 18:46:44.460, 1577144804460
96, -187500.02, 83000.09, 86896.63, 102663.62, 101578.30, 87836.01, -187500.02, -187500.02, 0.000, 0.000, 0.000, 18:46:44.460, 1577144804460
97, -187500.02, 82104.98, 85959.53, 101727.73, 100591.59, 86728.30, -187500.02, -187500.02, 0.000, 0.000, 0.000, 18:46:44.460, 1577144804460
98, -187500.02, 82350.71, 86301.85, 102078.54, 100669.37, 85515.52, -187500.02, -187500.02, 0.000, 0.000, 0.000, 18:46:44.460, 1577144804460
99, -187500.02, 83352.40, 87398.47, 103183.16, 101686.64, 85956.07, -187500.02, -187500.02, 0.000, 0.000, 0.000, 18:46:44.460, 1577144804460
100, -187500.02, 83166.68, 87088.88, 102860.63, 101732.33, 87748.20, -187500.02, -187500.02, 0.180, 0.280, 0.980, 18:46:44.460, 1577144804460
101, -187500.02, 82188.95, 86041.54, 101811.79, 100711.39, 86993.30, -187500.02, -187500.02, 0.000, 0.000, 0.000, 18:46:44.460, 1577144804460
102, -187500.02, 82231.93, 86168.07, 101947.31, 100582.02, 85658.32, -187500.02, -187500.02, 0.000, 0.000, 0.000, 18:46:44.460, 1577144804460
103, -187500.02, 83236.30, 87271.35, 103059.06, 101518.42, 85686.44, -187500.02, -187500.02, 0.000, 0.000, 0.000, 18:46:44.460, 1577144804460
104, -187500.02, 83334.81, 87279.23, 103058.73, 101867.42, 87575.20, -187500.02, -187500.02, 0.000, 0.000, 0.000, 18:46:44.460, 1577144804460
105, -187500.02, 82289.58, 86139.51, 101915.19, 100843.31, 87255.35, -187500.02, -187500.02, 0.000, 0.000, 0.000, 18:46:44.460, 1577144804460
106, -187500.02, 82139.04, 86054.13, 101838.27, 100526.43, 85842.30, -187500.02, -187500.02, 0.000, 0.000, 0.000, 18:46:44.460, 1577144804460
107, -187500.02, 83058.41, 87091.38, 102880.47, 101330.13, 85502.55, -187500.02, -187500.02, 0.000, 0.000, 0.000, 18:46:44.460, 1577144804460
108, -187500.02, 83445.12, 87420.02, 103204.26, 101932.94, 87298.91, -187500.02, -187500.02, 0.000, 0.000, 0.000, 18:46:44.460, 1577144804460
109, -187500.02, 82444.92, 86298.09, 102077.09, 101021.52, 87501.47, -187500.02, -187500.02, 0.000, 0.000, 0.000, 18:46:44.460, 1577144804460
110, -187500.02, 82082.42, 85980.14, 101764.12, 100494.22, 86042.70, -187500.02, -187500.02, 0.182, 0.282, 0.982, 18:46:44.460, 1577144804460
111, -187500.02, 82850.88, 86866.88, 102659.15, 101119.94, 85387.95, -187500.02, -187500.02, 0.000, 0.000, 0.000, 18:46:44.460, 1577144804460
112, -187500.02, 83506.36, 87507.66, 103298.27, 101947.60, 86967.28, -187500.02, -187500.02, 0.000, 0.000, 0.000, 18:46:44.460, 1577144804460
113, -187500.02, 82635.27, 86496.46, 102278.77, 101227.43, 87709.43, -187500.02, -187500.02, 0.000, 0.000, 0.000, 18:46:44.460, 1577144804460
114, -187500.02, 82050.93, 85934.20, 101721.87, 100494.55, 86263.94, -187500.02, -187500.02, 0.000, 0.000, 0.000, 18:46:44.460, 1577144804460
115, -187500.02, 82673.78, 86673.34, 102467.95, 100953.95, 85375.37, -187500.02, -187500.02, 0.000, 0.000, 0.000, 18:46:44.460, 1577144804460
116, -187500.02, 83527.13, 87549.88, 103344.56, 101918.30, 86606.62, -187500.02, -187500.02, 0.000, 0.000, 0.000, 18:46:44.460, 1577144804460
117, -187500.02, 82830.55, 86712.30, 102499.22, 101430.72, 87824.67, -187500.02, -187500.02, 0.000, 0.000, 0.000, 18:46:44.460, 1577144804460
118, -187500.02, 82066.82, 85940.30, 101730.92, 100547.46, 86514.39, -187500.02, -187500.02, 0.000, 0.000, 0.000, 18:46:44.460, 1577144804460
119, -187500.02, 82501.05, 86478.34, 102277.04, 100801.16, 85439.56, -187500.02, -187500.02, 0.000, 0.000, 0.000, 18:46:44.460, 1577144804460
120, -187500.02, 83459.40, 87500.04, 103302.14, 101814.43, 86244.27, -187500.02, -187500.02, 0.186, 0.288, 0.980, 18:46:44.460, 1577144804460
121, -187500.02, 83021.17, 86926.31, 102717.86, 101621.84, 87850.69, -187500.02, -187500.02, 0.000, 0.000, 0.000, 18:46:44.460, 1577144804460
122, -187500.02, 82113.96, 85981.37, 101771.69, 100628.31, 86781.27, -187500.02, -187500.02, 0.000, 0.000, 0.000, 18:46:44.460, 1577144804460
123, -187500.02, 82338.21, 86300.71, 102100.42, 100683.20, 85554.79, -187500.02, -187500.02, 0.000, 0.000, 0.000, 18:46:44.460, 1577144804460
124, -187500.02, 83361.99, 87404.39, 103208.38, 101675.94, 85921.73, -187500.02, -187500.02, 0.000, 0.000, 0.000, 18:46:44.460, 1577144804460
125, -187500.02, 83194.60, 87126.16, 102917.87, 101767.69, 87753.77, -187500.02, -187500.02, 0.000, 0.000, 0.000, 18:46:44.460, 1577144804460
126, -187500.02, 82192.66, 86053.19, 101843.10, 100730.28, 87044.44, -187500.02, -187500.02, 0.000, 0.000, 0.000, 18:46:44.460, 1577144804460
127, -187500.02, 82211.50, 86152.20, 101950.21, 100572.30, 85683.48, -187500.02, -187500.02, 0.000, 0.000, 0.000, 18:46:44.460, 1577144804460
128, -187500.02, 83215.95, 87258.37, 103064.13, 101502.60, 85666.05, -187500.02, -187500.02, 0.000, 0.000, 0.000, 18:46:44.460, 1577144804460
129, -187500.02, 83378.84, 87336.06, 103132.48, 101911.52, 87580.57, -187500.02, -187500.02, 0.000, 0.000, 0.000, 18:46:44.460, 1577144804460
130, -187500.02, 82335.24, 86189.42, 101981.13, 100897.60, 87327.52, -187500.02, -187500.02, 0.190, 0.288, 0.978, 18:46:44.461, 1577144804461
131, -187500.02, 82124.06, 86044.78, 101845.59, 100522.70, 85873.77, -187500.02, -187500.02, 0.000, 0.000, 0.000, 18:46:44.461, 1577144804461
132, -187500.02, 83028.99, 87062.59, 102872.29, 101307.11, 85479.95, -187500.02, -187500.02, 0.000, 0.000, 0.000, 18:46:44.461, 1577144804461
133, -187500.02, 83474.40, 87459.78, 103264.88, 101967.29, 87283.29, -187500.02, -187500.02, 0.000, 0.000, 0.000, 18:46:44.461, 1577144804461
134, -187500.02, 82473.55, 86330.37, 102130.34, 101063.03, 87552.34, -187500.02, -187500.02, 0.000, 0.000, 0.000, 18:46:44.461, 1577144804461
135, -187500.02, 82051.98, 85954.77, 101759.87, 100484.21, 86069.39, -187500.02, -187500.02, 0.000, 0.000, 0.000, 18:46:44.461, 1577144804461
136, -187500.02, 82842.45, 86863.88, 102678.61, 101125.34, 85398.86, -187500.02, -187500.02, 0.000, 0.000, 0.000, 18:46:44.461, 1577144804461
137, -187500.02, 83528.27, 87538.95, 103352.12, 101979.02, 86939.19, -187500.02, -187500.02, 0.000, 0.000, 0.000, 18:46:44.461, 1577144804461
138, -187500.02, 82661.53, 86526.82, 102330.22, 101263.30, 87740.30, -187500.02, -187500.02, 0.000, 0.000, 0.000, 18:46:44.461, 1577144804461
139, -187500.02, 82035.95, 85919.79, 101727.55, 100493.75, 86295.63, -187500.02, -187500.02, 0.000, 0.000, 0.000, 18:46:44.461, 1577144804461
140, -187500.02, 82647.00, 86640.30, 102459.03, 100937.59, 85382.14, -187500.02, -187500.02, 0.186, 0.286, 0.980, 18:46:44.461, 1577144804461
141, -187500.02, 83506.85, 87536.40, 103355.16, 101911.30, 86553.59, -187500.02, -187500.02, 0.000, 0.000, 0.000, 18:46:44.461, 1577144804461
142, -187500.02, 82833.08, 86721.86, 102525.99, 101440.66, 87818.28, -187500.02, -187500.02, 0.000, 0.000, 0.000, 18:46:44.461, 1577144804461
143, -187500.02, 82051.59, 85922.90, 101728.75, 100537.23, 86531.53, -187500.02, -187500.02, 0.000, 0.000, 0.000, 18:46:44.461, 1577144804461
144, -187500.02, 82476.59, 86455.61, 102270.47, 100795.61, 85450.83, -187500.02, -187500.02, 0.000, 0.000, 0.000, 18:46:44.461, 1577144804461
145, -187500.02, 83482.73, 87525.65, 103343.91, 101835.17, 86216.13, -187500.02, -187500.02, 0.000, 0.000, 0.000, 18:46:44.461, 1577144804461
146, -187500.02, 83065.98, 86972.98, 102780.52, 101662.80, 87862.27, -187500.02, -187500.02, 0.000, 0.000, 0.000, 18:46:44.461, 1577144804461
147, -187500.02, 82128.78, 85988.41, 101795.95, 100640.58, 86821.91, -187500.02, -187500.02, 0.000, 0.000, 0.000, 18:46:44.461, 1577144804461
148, -187500.02, 82324.24, 86282.88, 102101.67, 100682.49, 85566.70, -187500.02, -187500.02, 0.000, 0.000, 0.000, 18:46:44.461, 1577144804461
149, -187500.02, 83346.77, 87395.23, 103219.55, 101673.70, 85881.99, -187500.02, -187500.02, 0.000, 0.000, 0.000, 18:46:44.461, 1577144804461
150, -187500.02, 83232.06, 87159.82, 102975.18, 101809.42, 87740.05, -187500.02, -187500.02, 0.188, 0.286, 0.978, 18:46:44.461, 1577144804461
151, -187500.02, 82206.92, 86059.04, 101873.84, 100759.23, 87087.29, -187500.02, -187500.02, 0.000, 0.000, 0.000, 18:46:44.461, 1577144804461
152, -187500.02, 82199.05, 86128.71, 101952.18, 100575.07, 85708.01, -187500.02, -187500.02, 0.000, 0.000, 0.000, 18:46:44.461, 1577144804461
153, -187500.02, 83214.40, 87252.78, 103083.91, 101508.08, 85642.12, -187500.02, -187500.02, 0.000, 0.000, 0.000, 18:46:44.461, 1577144804461
154, -187500.02, 83386.73, 87343.77, 103167.52, 101932.13, 87542.75, -187500.02, -187500.02, 0.000, 0.000, 0.000, 18:46:44.461, 1577144804461
155, -187500.02, 82340.31, 86188.34, 102005.06, 100918.86, 87359.31, -187500.02, -187500.02, 0.000, 0.000, 0.000, 18:46:44.461, 1577144804461
156, -187500.02, 82117.31, 86027.13, 101852.45, 100525.98, 85898.55, -187500.02, -187500.02, 0.000, 0.000, 0.000, 18:46:44.461, 1577144804461
157, -187500.02, 83018.40, 87048.15, 102881.52, 101307.53, 85475.99, -187500.02, -187500.02, 0.000, 0.000, 0.000, 18:46:44.461, 1577144804461
158, -187500.02, 83503.01, 87484.86, 103314.07, 101999.99, 87260.78, -187500.02, -187500.02, 0.000, 0.000, 0.000, 18:46:44.461, 1577144804461
159, -187500.02, 82506.34, 86356.68, 102178.36, 101103.55, 87593.31, -187500.02, -187500.02, 0.000, 0.000, 0.000, 18:46:44.461, 1577144804461
160, -187500.02, 82064.63, 85957.34, 101787.96, 100505.76, 86109.82, -187500.02, -187500.02, 0.000, 0.000, 0.000, 18:46:44.461, 1577144804461
161, -187500.02, 82813.73, 86825.82, 102667.05, 101108.49, 85391.75, -187500.02, -187500.02, 0.186, 0.286, 0.980, 18:46:44.461, 1577144804461
162, -187500.02, 83541.30, 87545.16, 103385.60, 101987.77, 86893.63, -187500.02, -187500.02, 0.000, 0.000, 0.000, 18:46:44.461, 1577144804461
163, -187500.02, 82687.80, 86548.23, 102379.97, 101302.53, 87767.07, -187500.02, -187500.02, 0.000, 0.000, 0.000, 18:46:44.461, 1577144804461
164, -187500.02, 82040.55, 85914.25, 101750.57, 100516.80, 86341.08, -187500.02, -187500.02, 0.000, 0.000, 0.000, 18:46:44.461, 1577144804461
165, -187500.02, 82625.97, 86613.48, 102457.63, 100935.96, 85397.66, -187500.02, -187500.02, 0.000, 0.000, 0.000, 18:46:44.461, 1577144804461
166, -187500.02, 83528.47, 87551.84, 103396.87, 101928.94, 86523.63, -187500.02, -187500.02, 0.000, 0.000, 0.000, 18:46:44.461, 1577144804461
167, -187500.02, 82883.93, 86760.38, 102596.34, 101493.63, 87859.45, -187500.02, -187500.02, 0.000, 0.000, 0.000, 18:46:44.461, 1577144804461
168, -187500.02, 82062.84, 85922.16, 101761.34, 100565.73, 86592.47, -187500.02, -187500.02, 0.000, 0.000, 0.000, 18:46:44.461, 1577144804461
169, -187500.02, 82446.33, 86417.45, 102268.15, 100793.60, 85465.09, -187500.02, -187500.02, 0.000, 0.000, 0.000, 18:46:44.461, 1577144804461
170, -187500.02, 83464.74, 87495.09, 103350.80, 101825.54, 86168.23, -187500.02, -187500.02, 0.000, 0.000, 0.000, 18:46:44.461, 1577144804461
171, -187500.02, 83092.74, 86987.94, 102835.23, 101703.16, 87865.84, -187500.02, -187500.02, 0.192, 0.284, 0.980, 18:46:44.462, 1577144804462
172, -187500.02, 82119.32, 85967.51, 101814.30, 100661.44, 86861.42, -187500.02, -187500.02, 0.000, 0.000, 0.000, 18:46:44.462, 1577144804462
173, -187500.02, 82286.29, 86226.23, 102080.84, 100647.09, 85571.57, -187500.02, -187500.02, 0.000, 0.000, 0.000, 18:46:44.462, 1577144804462
174, -187500.02, 83319.57, 87352.18, 103214.01, 101644.64, 85834.65, -187500.02, -187500.02, 0.000, 0.000, 0.000, 18:46:44.462, 1577144804462
175, -187500.02, 83231.81, 87154.39, 103007.20, 101824.13, 87720.76, -187500.02, -187500.02, 0.000, 0.000, 0.000, 18:46:44.462, 1577144804462
176, -187500.02, 82196.50, 86033.63, 101878.53, 100760.90, 87117.33, -187500.02, -187500.02, 0.000, 0.000, 0.000, 18:46:44.462, 1577144804462
177, -187500.02, 82152.47, 86068.30, 101921.11, 100539.57, 85712.37, -187500.02, -187500.02, 0.000, 0.000, 0.000, 18:46:44.462, 1577144804462
178, -187500.02, 83161.98, 87186.06, 103048.16, 101457.34, 85593.19, -187500.02, -187500.02, 0.000, 0.000, 0.000, 18:46:44.462, 1577144804462
179, -187500.02, 83404.80, 87353.81, 103208.04, 101946.15, 87509.24, -187500.02, -187500.02, 0.000, 0.000, 0.000, 18:46:44.462, 1577144804462
180, -187500.02, 82349.08, 86189.04, 102035.40, 100937.66, 87386.84, -187500.02, -187500.02, 0.000, 0.000, 0.000, 18:46:44.462, 1577144804462
181, -187500.02, 82081.46, 85979.70, 101832.82, 100500.62, 85906.60, -187500.02, -187500.02, 0.188, 0.284, 0.980, 18:46:44.462, 1577144804462
182, -187500.02, 82974.81, 86990.53, 102849.89, 101269.31, 85440.79, -187500.02, -187500.02, 0.000, 0.000, 0.000, 18:46:44.462, 1577144804462
183, -187500.02, 83495.97, 87474.51, 103326.73, 101991.45, 87201.35, -187500.02, -187500.02, 0.000, 0.000, 0.000, 18:46:44.462, 1577144804462
184, -187500.02, 82512.45, 86356.54, 102200.17, 101117.37, 87619.10, -187500.02, -187500.02, 0.000, 0.000, 0.000, 18:46:44.462, 1577144804462
185, -187500.02, 82031.19, 85911.97, 101761.61, 100479.27, 86119.99, -187500.02, -187500.02, 0.000, 0.000, 0.000, 18:46:44.462, 1577144804462
186, -187500.02, 82777.05, 86774.68, 102632.59, 101066.00, 85362.02, -187500.02, -187500.02, 0.000, 0.000, 0.000, 18:46:44.462, 1577144804462
187, -187500.02, 83543.82, 87538.84, 103394.61, 101978.63, 86837.73, -187500.02, -187500.02, 0.000, 0.000, 0.000, 18:46:44.462, 1577144804462
188, -187500.02, 82703.28, 86555.85, 102401.45, 101317.91, 87784.66, -187500.02, -187500.02, 0.000, 0.000, 0.000, 18:46:44.462, 1577144804462
189, -187500.02, 82020.82, 85887.09, 101735.48, 100503.19, 86355.07, -187500.02, -187500.02, 0.000, 0.000, 0.000, 18:46:44.462, 1577144804462
190, -187500.02, 82585.67, 86567.72, 102424.72, 100897.67, 85382.68, -187500.02, -187500.02, 0.000, 0.000, 0.000, 18:46:44.462, 1577144804462
191, -187500.02, 83519.84, 87535.75, 103393.27, 101902.65, 86459.16, -187500.02, -187500.02, 0.184, 0.288, 0.984, 18:46:44.462, 1577144804462
192, -187500.02, 82906.98, 86781.59, 102628.12, 101522.78, 87870.27, -187500.02, -187500.02, 0.000, 0.000, 0.000, 18:46:44.462, 1577144804462
193, -187500.02, 82035.34, 85890.84, 101738.50, 100549.45, 86605.45, -187500.02, -187500.02, 0.000, 0.000, 0.000, 18:46:44.462, 1577144804462
194, -187500.02, 82402.34, 86367.23, 102220.40, 100744.61, 85457.47, -187500.02, -187500.02, 0.000, 0.000, 0.000, 18:46:44.462, 1577144804462
195, -187500.02, 83455.89, 87491.23, 103344.27, 101807.56, 86123.62, -187500.02, -187500.02, 0.000, 0.000, 0.000, 18:46:44.462, 1577144804462
196, -187500.02, 83113.20, 87015.47, 102858.32, 101715.90, 87859.83, -187500.02, -187500.02, 0.000, 0.000, 0.000, 18:46:44.462, 1577144804462
197, -187500.02, 82124.30, 85975.94, 101817.80, 100665.08, 86901.37, -187500.02, -187500.02, 0.000, 0.000, 0.000, 18:46:44.462, 1577144804462
198, -187500.02, 82264.50, 86207.45, 102059.29, 100627.08, 85591.95, -187500.02, -187500.02, 0.000, 0.000, 0.000, 18:46:44.462, 1577144804462
199, -187500.02, 83321.45, 87357.84, 103214.56, 101635.91, 85811.41, -187500.02, -187500.02, 0.000, 0.000, 0.000, 18:46:44.462, 1577144804462
200, -187500.02, 83283.24, 87215.21, 103061.37, 101858.93, 87718.84, -187500.02, -187500.02, 0.000, 0.000, 0.000, 18:46:44.462, 1577144804462
201, -187500.02, 82222.43, 86069.77, 101911.79, 100788.52, 87165.56, -187500.02, -187500.02, 0.184, 0.292, 0.980, 18:46:44.462, 1577144804462
202, -187500.02, 82139.71, 86063.40, 101913.63, 100528.29, 85734.98, -187500.02, -187500.02, 0.000, 0.000, 0.000, 18:46:44.462, 1577144804462
203, -187500.02, 83126.60, 87162.95, 103021.63, 101430.56, 85566.88, -187500.02, -187500.02, 0.000, 0.000, 0.000, 18:46:44.462, 1577144804462
204, -187500.02, 83399.07, 87363.27, 103213.16, 101943.15, 87470.55, -187500.02, -187500.02, 0.000, 0.000, 0.000, 18:46:44.462, 1577144804462
205, -187500.02, 82347.89, 86197.24, 102040.78, 100945.55, 87423.62, -187500.02, -187500.02, 0.000, 0.000, 0.000, 18:46:44.462, 1577144804462
206, -187500.02, 82042.43, 85945.92, 101795.79, 100470.87, 85925.27, -187500.02, -187500.02, 0.000, 0.000, 0.000, 18:46:44.462, 1577144804462
207, -187500.02, 82937.13, 86960.60, 102818.78, 101228.99, 85419.00, -187500.02, -187500.02, 0.000, 0.000, 0.000, 18:46:44.462, 1577144804462
208, -187500.02, 83501.45, 87493.13, 103344.65, 101993.53, 87163.17, -187500.02, -187500.02, 0.000, 0.000, 0.000, 18:46:44.462, 1577144804462
209, -187500.02, 82527.87, 86384.64, 102227.73, 101143.74, 87655.11, -187500.02, -187500.02, 0.000, 0.000, 0.000, 18:46:44.462, 1577144804462
210, -187500.02, 82009.20, 85902.09, 101752.13, 100477.68, 86154.59, -187500.02, -187500.02, 0.000, 0.000, 0.000, 18:46:44.940, 1577144804940
211, -187500.02, 82736.86, 86745.04, 102604.05, 101047.49, 85371.32, -187500.02, -187500.02, 0.186, 0.294, 0.982, 18:46:44.940, 1577144804940
212, -187500.02, 83529.41, 87542.64, 103396.51, 101973.82, 86799.89, -187500.02, -187500.02, 0.000, 0.000, 0.000, 18:46:44.940, 1577144804940
213, -187500.02, 82708.25, 86573.40, 102417.48, 101332.44, 87800.63, -187500.02, -187500.02, 0.000, 0.000, 0.000, 18:46:44.940, 1577144804940
214, -187500.02, 81988.84, 85859.48, 101708.70, 100484.72, 86384.21, -187500.02, -187500.02, 0.000, 0.000, 0.000, 18:46:44.940, 1577144804940
215, -187500.02, 82534.22, 86523.63, 102378.43, 100854.15, 85384.11, -187500.02, -187500.02, 0.000, 0.000, 0.000, 18:46:44.940, 1577144804940
216, -187500.02, 83489.66, 87517.96, 103373.10, 101883.18, 86407.28, -187500.02, -187500.02, 0.000, 0.000, 0.000, 18:46:44.940, 1577144804940
217, -187500.02, 82894.55, 86784.76, 102629.51, 101529.22, 87862.85, -187500.02, -187500.02, 0.000, 0.000, 0.000, 18:46:44.940, 1577144804940
218, -187500.02, 82049.77, 85911.52, 101752.70, 100570.06, 86662.54, -187500.02, -187500.02, 0.000, 0.000, 0.000, 18:46:44.940, 1577144804940
219, -187500.02, 82364.81, 86331.24, 102182.16, 100716.71, 85470.07, -187500.02, -187500.02, 0.000, 0.000, 0.000, 18:46:44.940, 1577144804940
220, -187500.02, 83395.00, 87431.20, 103286.42, 101751.77, 86049.92, -187500.02, -187500.02, 0.000, 0.000, 0.000, 18:46:44.940, 1577144804940
221, -187500.02, 83091.89, 87003.91, 102847.84, 101705.10, 87823.17, -187500.02, -187500.02, 0.184, 0.288, 0.984, 18:46:44.940, 1577144804940
222, -187500.02, 82097.59, 85950.08, 101791.07, 100652.56, 86913.39, -187500.02, -187500.02, 0.000, 0.000, 0.000, 18:46:44.940, 1577144804940
223, -187500.02, 82209.60, 86152.36, 102000.02, 100590.40, 85588.65, -187500.02, -187500.02, 0.000, 0.000, 0.000, 18:46:44.940, 1577144804940
224, -187500.02, 83257.23, 87300.81, 103153.32, 101583.78, 85747.23, -187500.02, -187500.02, 0.000, 0.000, 0.000, 18:46:44.940, 1577144804940
225, -187500.02, 83253.72, 87195.27, 103036.30, 101836.94, 87658.94, -187500.02, -187500.02, 0.000, 0.000, 0.000, 18:46:44.940, 1577144804940
226, -187500.02, 82196.80, 86049.41, 101885.41, 100782.05, 87180.74, -187500.02, -187500.02, 0.000, 0.000, 0.000, 18:46:44.940, 1577144804940
227, -187500.02, 82110.09, 86034.63, 101876.77, 100515.77, 85753.67, -187500.02, -187500.02, 0.000, 0.000, 0.000, 18:46:44.940, 1577144804940
228, -187500.02, 83095.02, 87130.65, 102980.61, 101398.41, 85531.54, -187500.02, -187500.02, 0.000, 0.000, 0.000, 18:46:44.940, 1577144804940
229, -187500.02, 83400.44, 87364.79, 103207.68, 101941.34, 87415.50, -187500.02, -187500.02, 0.000, 0.000, 0.000, 18:46:44.940, 1577144804940
230, -187500.02, 82354.24, 86198.78, 102033.66, 100956.10, 87440.54, -187500.02, -187500.02, 0.000, 0.000, 0.000, 18:46:44.940, 1577144804940
231, -187500.02, 82027.70, 85929.80, 101771.63, 100464.23, 85942.70, -187500.02, -187500.02, 0.182, 0.286, 0.980, 18:46:44.940, 1577144804940
232, -187500.02, 82895.64, 86912.97, 102763.91, 101190.50, 85386.32, -187500.02, -187500.02, 0.000, 0.000, 0.000, 18:46:44.940, 1577144804940
233, -187500.02, 83491.90, 87476.48, 103322.86, 101975.12, 87088.02, -187500.02, -187500.02, 0.000, 0.000, 0.000, 18:46:44.940, 1577144804940
234, -187500.02, 82519.48, 86364.97, 102200.80, 101130.89, 87644.18, -187500.02, -187500.02, 0.000, 0.000, 0.000, 18:46:44.941, 1577144804941
235, -187500.02, 81975.71, 85854.14, 101694.91, 100443.02, 86150.15, -187500.02, -187500.02, 0.000, 0.000, 0.000, 18:46:44.941, 1577144804941
236, -187500.02, 82692.40, 86690.55, 102540.10, 100999.21, 85340.68, -187500.02, -187500.02, 0.000, 0.000, 0.000, 18:46:44.941, 1577144804941
237, -187500.02, 83511.95, 87518.99, 103367.13, 101947.95, 86717.03, -187500.02, -187500.02, 0.000, 0.000, 0.000, 18:46:44.941, 1577144804941
238, -187500.02, 82702.21, 86560.91, 102397.80, 101328.70, 87779.05, -187500.02, -187500.02, 0.000, 0.000, 0.000, 18:46:44.941, 1577144804941
239, -187500.02, 81973.88, 85831.86, 101672.36, 100471.53, 86391.23, -187500.02, -187500.02, 0.000, 0.000, 0.000, 18:46:44.941, 1577144804941
240, -187500.02, 82497.02, 86474.05, 102321.95, 100823.46, 85363.79, -187500.02, -187500.02, 0.000, 0.000, 0.000, 18:46:44.941, 1577144804941
241, -187500.02, 83476.12, 87501.66, 103349.41, 101863.00, 86333.34, -187500.02, -187500.02, 0.182, 0.284, 0.976, 18:46:44.941, 1577144804941
242, -187500.02, 82911.40, 86789.90, 102625.48, 101531.01, 87835.02, -187500.02, -187500.02, 0.000, 0.000, 0.000, 18:46:44.941, 1577144804941
243, -187500.02, 82013.48, 85861.41, 101696.97, 100534.16, 86651.12, -187500.02, -187500.02, 0.000, 0.000, 0.000, 18:46:44.941, 1577144804941
244, -187500.02, 82316.95, 86269.08, 102114.86, 100665.16, 85445.80, -187500.02, -187500.02, 0.000, 0.000, 0.000, 18:46:44.941, 1577144804941
245, -187500.02, 83367.71, 87409.24, 103257.95, 101723.10, 85986.33, -187500.02, -187500.02, 0.000, 0.000, 0.000, 18:46:44.941, 1577144804941
246, -187500.02, 83106.64, 87026.94, 102863.82, 101721.55, 87794.20, -187500.02, -187500.02, 0.000, 0.000, 0.000, 18:46:44.941, 1577144804941
247, -187500.02, 82101.11, 85956.63, 101791.30, 100667.88, 86948.22, -187500.02, -187500.02, 0.000, 0.000, 0.000, 18:46:44.941, 1577144804941
248, -187500.02, 82188.84, 86134.86, 101977.48, 100582.13, 85608.88, -187500.02, -187500.02, 0.000, 0.000, 0.000, 18:46:44.941, 1577144804941
249, -187500.02, 83234.97, 87283.49, 103132.24, 101567.51, 85714.27, -187500.02, -187500.02, 0.000, 0.000, 0.000, 18:46:44.941, 1577144804941
250, -187500.02, 83286.35, 87236.71, 103075.47, 101875.09, 87647.63, -187500.02, -187500.02, 0.000, 0.000, 0.000, 18:46:44.941, 1577144804941
251, -187500.02, 82213.42, 86070.33, 101903.92, 100811.13, 87226.30, -187500.02, -187500.02, 0.182, 0.284, 0.980, 18:46:44.941, 1577144804941
252, -187500.02, 82066.10, 85990.98, 101830.16, 100489.73, 85767.44, -187500.02, -187500.02, 0.000, 0.000, 0.000, 18:46:44.941, 1577144804941
253, -187500.02, 83036.98, 87078.86, 102927.27, 101354.36, 85489.56, -187500.02, -187500.02, 0.000, 0.000, 0.000, 18:46:44.941, 1577144804941
254, -187500.02, 83398.47, 87376.56, 103218.36, 101945.19, 87371.87, -187500.02, -187500.02, 0.000, 0.000, 0.000, 18:46:44.941, 1577144804941
255, -187500.02, 82347.34, 86202.45, 102036.00, 100965.69, 87465.34, -187500.02, -187500.02, 0.000, 0.000, 0.000, 18:46:44.941, 1577144804941
0, -187500.02, 81994.80, 85900.81, 101738.86, 100446.81, 85961.12, -187500.02, -187500.02, 0.000, 0.000, 0.000, 18:46:44.941, 1577144804941
1, -187500.02, 82848.64, 86880.71, 102725.20, 101166.20, 85379.21, -187500.02, -187500.02, 0.000, 0.000, 0.000, 18:46:44.941, 1577144804941
2, -187500.02, 83471.83, 87485.04, 103320.73, 101976.34, 87041.55, -187500.02, -187500.02, 0.000, 0.000, 0.000, 18:46:44.941, 1577144804941
3, -187500.02, 82522.73, 86393.18, 102216.45, 101162.67, 87676.70, -187500.02, -187500.02, 0.000, 0.000, 0.000, 18:46:44.941, 1577144804941
4, -187500.02, 81955.59, 85849.88, 101677.92, 100442.79, 86190.45, -187500.02, -187500.02, 0.000, 0.000, 0.000, 18:46:44.941, 1577144804941
5, -187500.02, 82655.98, 86667.05, 102504.34, 100971.27, 85345.06, -187500.02, -187500.02, 0.182, 0.284, 0.982, 18:46:44.941, 1577144804941
6, -187500.02, 83500.77, 87530.19, 103366.87, 101953.14, 86677.02, -187500.02, -187500.02, 0.000, 0.000, 0.000, 18:46:44.941, 1577144804941
7, -187500.02, 82731.54, 86624.32, 102441.77, 101381.72, 87817.88, -187500.02, -187500.02, 0.000, 0.000, 0.000, 18:46:44.941, 1577144804941
8, -187500.02, 81987.45, 85878.77, 101695.23, 100505.53, 86453.10, -187500.02, -187500.02, 0.000, 0.000, 0.000, 18:46:44.941, 1577144804941
9, -187500.02, 82462.09, 86464.50, 102288.27, 100807.91, 85379.44, -187500.02, -187500.02, 0.000, 0.000, 0.000, 18:46:44.941, 1577144804941
10, -187500.02, 83457.25, 87516.98, 103341.99, 101859.04, 86293.02, -187500.02, -187500.02, 0.000, 0.000, 0.000, 18:46:44.941, 1577144804941
11, -187500.02, 82935.20, 86851.79, 102664.89, 101579.84, 87861.22, -187500.02, -187500.02, 0.000, 0.000, 0.000, 18:46:44.941, 1577144804941
12, -187500.02, 82003.98, 85886.04, 101698.53, 100559.42, 86703.53, -187500.02, -187500.02, 0.000, 0.000, 0.000, 18:46:44.941, 1577144804941
13, -187500.02, 82291.92, 86274.38, 102093.78, 100666.09, 85480.49, -187500.02, -187500.02, 0.000, 0.000, 0.000, 18:46:44.941, 1577144804941
14, -187500.02, 83349.49, 87415.59, 103237.25, 101713.20, 85955.42, -187500.02, -187500.02, 0.000, 0.000, 0.000, 18:46:44.941, 1577144804941
15, -187500.02, 83124.46, 87067.55, 102878.02, 101750.79, 87793.98, -187500.02, -187500.02, 0.186, 0.290, 0.986, 18:46:44.941, 1577144804941
16, -187500.02, 82103.43, 85976.38, 101784.05, 100686.58, 86995.22, -187500.02, -187500.02, 0.000, 0.000, 0.000, 18:46:44.941, 1577144804941
17, -187500.02, 82167.55, 86125.20, 101940.09, 100571.36, 85632.97, -187500.02, -187500.02, 0.000, 0.000, 0.000, 18:46:44.942, 1577144804942
18, -187500.02, 83212.99, 87273.63, 103095.74, 101547.77, 85686.17, -187500.02, -187500.02, 0.000, 0.000, 0.000, 18:46:44.942, 1577144804942
19, -187500.02, 83322.20, 87286.82, 103100.79, 101912.06, 87640.13, -187500.02, -187500.02, 0.000, 0.000, 0.000, 18:46:44.942, 1577144804942
20, -187500.02, 82245.88, 86109.84, 101920.11, 100854.04, 87286.80, -187500.02, -187500.02, 0.000, 0.000, 0.000, 18:46:44.942, 1577144804942
21, -187500.02, 82075.70, 86009.27, 101823.30, 100505.87, 85813.89, -187500.02, -187500.02, 0.000, 0.000, 0.000, 18:46:44.942, 1577144804942
22, -187500.02, 83039.03, 87087.42, 102909.35, 101353.52, 85492.55, -187500.02, -187500.02, 0.000, 0.000, 0.000, 18:46:44.942, 1577144804942
23, -187500.02, 83432.71, 87423.70, 103242.13, 101981.44, 87359.69, -187500.02, -187500.02, 0.000, 0.000, 0.000, 18:46:44.942, 1577144804942
24, -187500.02, 82380.10, 86242.80, 102053.41, 101017.45, 87521.29, -187500.02, -187500.02, 0.000, 0.000, 0.000, 18:46:44.942, 1577144804942
25, -187500.02, 82000.37, 85912.80, 101728.91, 100469.99, 86015.97, -187500.02, -187500.02, 0.190, 0.294, 0.984, 18:46:44.942, 1577144804942
26, -187500.02, 82827.05, 86861.76, 102686.01, 101153.38, 85379.39, -187500.02, -187500.02, 0.000, 0.000, 0.000, 18:46:44.942, 1577144804942
27, -187500.02, 83513.67, 87530.28, 103346.46, 102007.75, 87021.80, -187500.02, -187500.02, 0.000, 0.000, 0.000, 18:46:44.942, 1577144804942
28, -187500.02, 82595.64, 86468.41, 102275.30, 101244.88, 87745.15, -187500.02, -187500.02, 0.000, 0.000, 0.000, 18:46:44.942, 1577144804942
29, -187500.02, 81993.26, 85892.52, 101702.63, 100494.29, 86259.42, -187500.02, -187500.02, 0.000, 0.000, 0.000, 18:46:44.942, 1577144804942
30, -187500.02, 82647.18, 86660.70, 102479.59, 100983.63, 85369.94, -187500.02, -187500.02, 0.000, 0.000, 0.000, 18:46:44.942, 1577144804942
31, -187500.02, 83508.22, 87548.30, 103362.29, 101958.06, 86638.16, -187500.02, -187500.02, 0.000, 0.000, 0.000, 18:46:44.942, 1577144804942
32, -187500.02, 82770.59, 86663.99, 102464.93, 101426.34, 87854.24, -187500.02, -187500.02, 0.000, 0.000, 0.000, 18:46:44.942, 1577144804942
33, -187500.02, 81994.53, 85879.69, 101682.15, 100518.56, 86499.62, -187500.02, -187500.02, 0.000, 0.000, 0.000, 18:46:44.942, 1577144804942
34, -187500.02, 82466.98, 86462.29, 102274.18, 100815.15, 85415.80, -187500.02, -187500.02, 0.000, 0.000, 0.000, 18:46:44.942, 1577144804942
35, -187500.02, 83472.05, 87524.84, 103338.84, 101870.66, 86272.95, -187500.02, -187500.02, 0.000, 0.000, 0.000, 18:46:44.942, 1577144804942
36, -187500.02, 82967.73, 86881.14, 102682.21, 101615.48, 87879.30, -187500.02, -187500.02, 0.188, 0.292, 0.984, 18:46:44.942, 1577144804942
37, -187500.02, 82024.88, 85901.39, 101702.06, 100585.55, 86760.13, -187500.02, -187500.02, 0.000, 0.000, 0.000, 18:46:44.942, 1577144804942
38, -187500.02, 82289.80, 86267.54, 102075.18, 100669.73, 85518.80, -187500.02, -187500.02, 0.000, 0.000, 0.000, 18:46:44.942, 1577144804942
39, -187500.02, 83351.02, 87411.73, 103222.90, 101709.95, 85930.20, -187500.02, -187500.02, 0.000, 0.000, 0.000, 18:46:44.942, 1577144804942
40, -187500.02, 83159.10, 87098.62, 102900.01, 101782.55, 87791.08, -187500.02, -187500.02, 0.000, 0.000, 0.000, 18:46:44.943, 1577144804943
41, -187500.02, 82123.91, 85996.73, 101794.60, 100715.46, 87048.55, -187500.02, -187500.02, 0.000, 0.000, 0.000, 18:46:44.943, 1577144804943
42, -187500.02, 82144.31, 86103.99, 101908.87, 100557.05, 85658.30, -187500.02, -187500.02, 0.000, 0.000, 0.000, 18:46:44.943, 1577144804943
43, -187500.02, 83188.67, 87253.98, 103066.80, 101525.89, 85658.99, -187500.02, -187500.02, 0.000, 0.000, 0.000, 18:46:44.943, 1577144804943
44, -187500.02, 83325.76, 87298.06, 103101.75, 101920.51, 87609.36, -187500.02, -187500.02, 0.000, 0.000, 0.000, 18:46:44.943, 1577144804943
45, -187500.02, 82247.45, 86115.21, 101913.96, 100867.01, 87326.32, -187500.02, -187500.02, 0.000, 0.000, 0.000, 18:46:44.943, 1577144804943
46, -187500.02, 82049.70, 85985.99, 101792.52, 100496.32, 85842.56, -187500.02, -187500.02, 0.190, 0.288, 0.984, 18:46:44.943, 1577144804943
47, -187500.02, 83007.88, 87059.15, 102872.65, 101332.03, 85480.17, -187500.02, -187500.02, 0.000, 0.000, 0.000, 18:46:44.943, 1577144804943
48, -187500.02, 83440.60, 87440.47, 103247.51, 101987.79, 87325.16, -187500.02, -187500.02, 0.000, 0.000, 0.000, 18:46:44.943, 1577144804943
49, -187500.02, 82393.63, 86261.59, 102062.40, 101032.43, 87560.52, -187500.02, -187500.02, 0.000, 0.000, 0.000, 18:46:44.943, 1577144804943
50, -187500.02, 81981.75, 85896.25, 101700.26, 100452.89, 86052.38, -187500.02, -187500.02, 0.000, 0.000, 0.000, 18:46:44.943, 1577144804943
51, -187500.02, 82790.21, 86823.54, 102636.97, 101120.59, 85374.20, -187500.02, -187500.02, 0.000, 0.000, 0.000, 18:46:44.943, 1577144804943
52, -187500.02, 83514.56, 87539.09, 103348.79, 102011.23, 86981.27, -187500.02, -187500.02, 0.000, 0.000, 0.000, 18:46:44.943, 1577144804943
53, -187500.02, 82610.99, 86492.28, 102292.80, 101265.23, 87778.43, -187500.02, -187500.02, 0.000, 0.000, 0.000, 18:46:44.943, 1577144804943
54, -187500.02, 81971.63, 85870.13, 101675.06, 100477.97, 86292.64, -187500.02, -187500.02, 0.000, 0.000, 0.000, 18:46:44.943, 1577144804943
55, -187500.02, 82612.18, 86626.35, 102440.39, 100945.70, 85372.73, -187500.02, -187500.02, 0.000, 0.000, 0.000, 18:46:44.943, 1577144804943
56, -187500.02, 83515.95, 87557.68, 103372.30, 101956.92, 86600.71, -187500.02, -187500.02, 0.190, 0.286, 0.980, 18:46:44.943, 1577144804943
57, -187500.02, 82810.77, 86703.38, 102506.57, 101464.76, 87888.27, -187500.02, -187500.02, 0.000, 0.000, 0.000, 18:46:44.943, 1577144804943
58, -187500.02, 81995.07, 85871.73, 101677.68, 100526.32, 86551.47, -187500.02, -187500.02, 0.000, 0.000, 0.000, 18:46:44.943, 1577144804943
59, -187500.02, 82439.73, 86428.25, 102241.77, 100793.53, 85441.17, -187500.02, -187500.02, 0.000, 0.000, 0.000, 18:46:44.943, 1577144804943
60, -187500.02, 83449.30, 87500.08, 103315.77, 101837.05, 86219.51, -187500.02, -187500.02, 0.000, 0.000, 0.000, 18:46:44.943, 1577144804943
61, -187500.02, 83011.65, 86922.00, 102727.02, 101656.18, 87898.50, -187500.02, -187500.02, 0.000, 0.000, 0.000, 18:46:44.943, 1577144804943
62, -187500.02, 82048.63, 85912.26, 101716.93, 100613.73, 86829.98, -187500.02, -187500.02, 0.000, 0.000, 0.000, 18:46:44.943, 1577144804943
63, -187500.02, 82255.71, 86216.80, 102029.77, 100641.59, 85538.31, -187500.02, -187500.02, 0.000, 0.000, 0.000, 18:46:44.943, 1577144804943
64, -187500.02, 83333.31, 87391.48, 103208.98, 101693.59, 85903.43, -187500.02, -187500.02, 0.000, 0.000, 0.000, 18:46:44.943, 1577144804943
65, -187500.02, 83204.45, 87140.22, 102946.63, 101823.37, 87800.91, -187500.02, -187500.02, 0.000, 0.000, 0.000, 18:46:44.943, 1577144804943
66, -187500.02, 82145.52, 86001.59, 101805.17, 100731.77, 87099.58, -187500.02, -187500.02, 0.186, 0.286, 0.976, 18:46:44.943, 1577144804943
67, -187500.02, 82135.30, 86073.73, 101885.39, 100547.33, 85697.16, -187500.02, -187500.02, 0.000, 0.000, 0.000, 18:46:44.943, 1577144804943
68, -187500.02, 83158.88, 87204.92, 103023.84, 101494.71, 85635.19, -187500.02, -187500.02, 0.000, 0.000, 0.000, 18:46:44.943, 1577144804943
69, -187500.02, 83360.45, 87329.02, 103136.82, 101942.57, 87588.52, -187500.02, -187500.02, 0.000, 0.000, 0.000, 18:46:44.943, 1577144804943
70, -187500.02, 82271.60, 86133.41, 101939.33, 100892.51, 87371.09, -187500.02, -187500.02, 0.000, 0.000, 0.000, 18:46:44.943, 1577144804943
71, -187500.02, 82053.79, 85975.94, 101789.48, 100497.98, 85884.50, -187500.02, -187500.02, 0.000, 0.000, 0.000, 18:46:44.943, 1577144804943
