%OpenBCI Raw EEG Data
%Number of channels = 8
%Sample Rate = 250.0 Hz
%First Column = SampleIndex
%Last Column = Timestamp 
%Other Columns = EEG data in microvolts followed by Accel Data (in G) interleaved with Aux Data
0, 0.00, 0.00, 0.00, 0.00, 0.00, 0.00, 0.00, 0.00, 0.176, 0.272, 0.986, 19:05:20.394, 1577145920394
1, -187500.02, 94463.48, 99778.54, 102369.16, 110698.91, 105970.80, -187500.02, -187500.02, 0.000, 0.000, 0.000, 19:05:20.411, 1577145920411
2, -187500.02, 93964.41, 99302.18, 101890.16, 110081.47, 103982.86, -187500.02, -187500.02, 0.000, 0.000, 0.000, 19:05:20.892, 1577145920892
3, -187500.02, 94113.13, 99461.98, 102051.49, 110210.86, 103606.10, -187500.02, -187500.02, 0.000, 0.000, 0.000, 19:05:20.892, 1577145920892
4, -187500.02, 94741.35, 100064.48, 102655.01, 110981.64, 106092.10, -187500.02, -187500.02, 0.000, 0.000, 0.000, 19:05:20.892, 1577145920892
5, -187500.02, 94541.77, 99853.15, 102446.13, 110790.17, 106188.44, -187500.02, -187500.02, 0.000, 0.000, 0.000, 19:05:20.892, 1577145920892
6, -187500.02, 94026.34, 99355.53, 101948.18, 110163.90, 104340.55, -187500.02, -187500.02, 0.000, 0.000, 0.000, 19:05:20.892, 1577145920892
7, -187500.02, 94009.55, 99356.92, 101953.70, 110102.30, 103368.84, -187500.02, -187500.02, 0.000, 0.000, 0.000, 19:05:20.893, 1577145920893
8, -187500.02, 94666.07, 99989.66, 102587.40, 110898.91, 105728.53, -187500.02, -187500.02, 0.174, 0.276, 0.986, 19:05:20.893, 1577145920893
9, -187500.02, 94629.99, 99930.38, 102528.03, 110877.77, 106377.40, -187500.02, -187500.02, 0.000, 0.000, 0.000, 19:05:20.893, 1577145920893
10, -187500.02, 94112.93, 99434.81, 102033.01, 110272.48, 104707.73, -187500.02, -187500.02, 0.000, 0.000, 0.000, 19:05:20.893, 1577145920893
11, -187500.02, 93939.87, 99286.87, 101885.26, 110021.30, 103281.77, -187500.02, -187500.02, 0.000, 0.000, 0.000, 19:05:20.893, 1577145920893
12, -187500.02, 94587.95, 99912.36, 102513.39, 110786.09, 105297.12, -187500.02, -187500.02, 0.000, 0.000, 0.000, 19:05:20.893, 1577145920893
13, -187500.02, 94700.00, 100002.30, 102603.82, 110962.05, 106501.77, -187500.02, -187500.02, 0.000, 0.000, 0.000, 19:05:20.893, 1577145920893
14, -187500.02, 94202.34, 99514.52, 102112.78, 110373.05, 105064.02, -187500.02, -187500.02, 0.000, 0.000, 0.000, 19:05:20.893, 1577145920893
15, -187500.02, 93897.22, 99230.97, 101830.74, 109971.52, 103305.36, -187500.02, -187500.02, 0.000, 0.000, 0.000, 19:05:20.893, 1577145920893
16, -187500.02, 94463.27, 99790.77, 102393.65, 110642.65, 104816.45, -187500.02, -187500.02, 0.000, 0.000, 0.000, 19:05:20.893, 1577145920893
17, -187500.02, 94751.99, 100053.36, 102657.05, 111012.13, 106567.73, -187500.02, -187500.02, 0.000, 0.000, 0.000, 19:05:20.893, 1577145920893
18, -187500.02, 94302.43, 99608.89, 102215.28, 110501.86, 105414.35, -187500.02, -187500.02, 0.172, 0.278, 0.988, 19:05:20.893, 1577145920893
19, -187500.02, 93898.80, 99228.17, 101837.59, 109986.02, 103451.60, -187500.02, -187500.02, 0.000, 0.000, 0.000, 19:05:20.893, 1577145920893
20, -187500.02, 94337.75, 99666.89, 102278.54, 110481.52, 104323.88, -187500.02, -187500.02, 0.000, 0.000, 0.000, 19:05:20.893, 1577145920893
21, -187500.02, 94771.98, 100076.53, 102685.95, 111041.20, 106484.55, -187500.02, -187500.02, 0.000, 0.000, 0.000, 19:05:20.893, 1577145920893
22, -187500.02, 94384.73, 99684.93, 102291.55, 110599.47, 105726.32, -187500.02, -187500.02, 0.000, 0.000, 0.000, 19:05:20.893, 1577145920893
23, -187500.02, 93917.84, 99242.63, 101849.50, 110013.70, 103706.68, -187500.02, -187500.02, 0.000, 0.000, 0.000, 19:05:20.893, 1577145920893
24, -187500.02, 94222.05, 99558.66, 102167.16, 110338.94, 103901.99, -187500.02, -187500.02, 0.000, 0.000, 0.000, 19:05:20.893, 1577145920893
25, -187500.02, 94783.80, 100088.70, 102699.06, 111050.01, 106360.73, -187500.02, -187500.02, 0.000, 0.000, 0.000, 19:05:20.893, 1577145920893
26, -187500.02, 94480.93, 99779.21, 102388.91, 110712.50, 106001.52, -187500.02, -187500.02, 0.000, 0.000, 0.000, 19:05:20.893, 1577145920893
27, -187500.02, 93981.02, 99297.24, 101908.87, 110093.38, 104003.31, -187500.02, -187500.02, 0.000, 0.000, 0.000, 19:05:20.893, 1577145920893
28, -187500.02, 94100.26, 99428.67, 102043.00, 110201.61, 103551.74, -187500.02, -187500.02, 0.174, 0.266, 0.984, 19:05:20.893, 1577145920893
29, -187500.02, 94737.71, 100038.49, 102653.09, 110970.82, 106066.69, -187500.02, -187500.02, 0.000, 0.000, 0.000, 19:05:20.894, 1577145920894
30, -187500.02, 94563.34, 99854.42, 102471.30, 110809.20, 106236.41, -187500.02, -187500.02, 0.000, 0.000, 0.000, 19:05:20.894, 1577145920894
31, -187500.02, 94038.57, 99351.69, 101968.12, 110190.09, 104389.20, -187500.02, -187500.02, 0.000, 0.000, 0.000, 19:05:20.894, 1577145920894
32, -187500.02, 93987.34, 99325.18, 101937.66, 110075.54, 103324.80, -187500.02, -187500.02, 0.000, 0.000, 0.000, 19:05:20.894, 1577145920894
33, -187500.02, 94656.95, 99962.56, 102578.66, 110870.93, 105653.02, -187500.02, -187500.02, 0.000, 0.000, 0.000, 19:05:20.894, 1577145920894
34, -187500.02, 94637.08, 99932.92, 102547.45, 110898.96, 106421.05, -187500.02, -187500.02, 0.000, 0.000, 0.000, 19:05:20.894, 1577145920894
35, -187500.02, 94121.59, 99433.37, 102045.55, 110281.89, 104758.20, -187500.02, -187500.02, 0.000, 0.000, 0.000, 19:05:20.894, 1577145920894
36, -187500.02, 93926.09, 99262.91, 101875.20, 110006.88, 103249.81, -187500.02, -187500.02, 0.000, 0.000, 0.000, 19:05:20.894, 1577145920894
37, -187500.02, 94565.66, 99884.31, 102500.49, 110763.24, 105214.09, -187500.02, -187500.02, 0.000, 0.000, 0.000, 19:05:20.894, 1577145920894
38, -187500.02, 94695.82, 99988.63, 102604.70, 110962.98, 106531.12, -187500.02, -187500.02, 0.172, 0.270, 0.980, 19:05:20.894, 1577145920894
39, -187500.02, 94204.42, 99504.84, 102122.86, 110389.74, 105112.16, -187500.02, -187500.02, 0.000, 0.000, 0.000, 19:05:20.894, 1577145920894
40, -187500.02, 93886.06, 99215.32, 101834.41, 109972.68, 103307.73, -187500.02, -187500.02, 0.000, 0.000, 0.000, 19:05:20.894, 1577145920894
41, -187500.02, 94456.68, 99777.45, 102396.78, 110622.27, 104729.01, -187500.02, -187500.02, 0.000, 0.000, 0.000, 19:05:20.894, 1577145920894
42, -187500.02, 94772.27, 100063.77, 102683.53, 111034.95, 106565.73, -187500.02, -187500.02, 0.000, 0.000, 0.000, 19:05:20.894, 1577145920894
43, -187500.02, 94308.40, 99604.02, 102222.55, 110513.93, 105464.53, -187500.02, -187500.02, 0.000, 0.000, 0.000, 19:05:20.894, 1577145920894
44, -187500.02, 93887.92, 99210.88, 101825.91, 109978.76, 103474.58, -187500.02, -187500.02, 0.000, 0.000, 0.000, 19:05:20.895, 1577145920895
45, -187500.02, 94318.19, 99641.39, 102259.32, 110457.13, 104237.98, -187500.02, -187500.02, 0.000, 0.000, 0.000, 19:05:20.895, 1577145920895
46, -187500.02, 94777.79, 100075.15, 102692.54, 111045.66, 106470.67, -187500.02, -187500.02, 0.000, 0.000, 0.000, 19:05:20.895, 1577145920895
47, -187500.02, 94392.27, 99678.36, 102290.99, 110605.30, 105764.16, -187500.02, -187500.02, 0.000, 0.000, 0.000, 19:05:20.895, 1577145920895
48, -187500.02, 93919.77, 99232.60, 101847.93, 110016.76, 103756.28, -187500.02, -187500.02, 0.170, 0.274, 0.986, 19:05:20.895, 1577145920895
49, -187500.02, 94180.59, 99507.37, 102122.08, 110294.41, 103836.21, -187500.02, -187500.02, 0.000, 0.000, 0.000, 19:05:20.895, 1577145920895
50, -187500.02, 94768.98, 100064.80, 102680.47, 111020.02, 106310.68, -187500.02, -187500.02, 0.000, 0.000, 0.000, 19:05:20.895, 1577145920895
51, -187500.02, 94500.34, 99788.47, 102406.66, 110744.59, 106062.63, -187500.02, -187500.02, 0.000, 0.000, 0.000, 19:05:20.895, 1577145920895
52, -187500.02, 93975.85, 99284.52, 101902.78, 110114.50, 104092.12, -187500.02, -187500.02, 0.000, 0.000, 0.000, 19:05:20.895, 1577145920895
53, -187500.02, 94071.34, 99400.71, 102017.60, 110172.86, 103493.47, -187500.02, -187500.02, 0.000, 0.000, 0.000, 19:05:20.895, 1577145920895
54, -187500.02, 94735.77, 100038.09, 102654.09, 110974.40, 106002.98, -187500.02, -187500.02, 0.000, 0.000, 0.000, 19:05:20.895, 1577145920895
55, -187500.02, 94584.96, 99871.59, 102487.64, 110836.06, 106296.35, -187500.02, -187500.02, 0.000, 0.000, 0.000, 19:05:20.895, 1577145920895
56, -187500.02, 94050.10, 99351.55, 101968.27, 110198.14, 104459.98, -187500.02, -187500.02, 0.000, 0.000, 0.000, 19:05:20.895, 1577145920895
57, -187500.02, 93969.28, 99293.09, 101909.91, 110057.77, 103302.83, -187500.02, -187500.02, 0.000, 0.000, 0.000, 19:05:20.895, 1577145920895
58, -187500.02, 94654.49, 99955.91, 102569.23, 110862.10, 105594.24, -187500.02, -187500.02, 0.172, 0.274, 0.988, 19:05:20.895, 1577145920895
59, -187500.02, 94665.18, 99949.76, 102566.12, 110924.51, 106456.21, -187500.02, -187500.02, 0.000, 0.000, 0.000, 19:05:20.895, 1577145920895
60, -187500.02, 94135.22, 99437.09, 102054.28, 110310.68, 104821.16, -187500.02, -187500.02, 0.000, 0.000, 0.000, 19:05:20.895, 1577145920895
61, -187500.02, 93911.74, 99224.42, 101841.45, 109990.56, 103251.98, -187500.02, -187500.02, 0.000, 0.000, 0.000, 19:05:20.895, 1577145920895
62, -187500.02, 94547.12, 99853.27, 102471.37, 110738.98, 105132.39, -187500.02, -187500.02, 0.000, 0.000, 0.000, 19:05:20.895, 1577145920895
63, -187500.02, 94716.07, 99997.92, 102615.88, 110973.23, 106536.93, -187500.02, -187500.02, 0.000, 0.000, 0.000, 19:05:20.895, 1577145920895
64, -187500.02, 94225.81, 99512.55, 102133.86, 110408.96, 105176.38, -187500.02, -187500.02, 0.000, 0.000, 0.000, 19:05:20.895, 1577145920895
65, -187500.02, 93885.30, 99206.43, 101825.56, 109977.46, 103343.87, -187500.02, -187500.02, 0.000, 0.000, 0.000, 19:05:20.895, 1577145920895
66, -187500.02, 94425.68, 99741.10, 102358.34, 110593.55, 104665.08, -187500.02, -187500.02, 0.000, 0.000, 0.000, 19:05:20.895, 1577145920895
67, -187500.02, 94769.74, 100052.84, 102669.98, 111033.05, 106561.24, -187500.02, -187500.02, 0.000, 0.000, 0.000, 19:05:20.895, 1577145920895
68, -187500.02, 94327.87, 99615.91, 102234.95, 110536.81, 105509.46, -187500.02, -187500.02, 0.174, 0.274, 0.984, 19:05:20.895, 1577145920895
69, -187500.02, 93900.28, 99219.99, 101835.91, 110006.32, 103524.80, -187500.02, -187500.02, 0.000, 0.000, 0.000, 19:05:20.895, 1577145920895
70, -187500.02, 94295.73, 99616.55, 102229.59, 110437.71, 104196.85, -187500.02, -187500.02, 0.000, 0.000, 0.000, 19:05:20.895, 1577145920895
71, -187500.02, 94786.39, 100073.14, 102686.57, 111041.02, 106466.92, -187500.02, -187500.02, 0.000, 0.000, 0.000, 19:05:20.895, 1577145920895
72, -187500.02, 94417.88, 99700.18, 102311.11, 110642.90, 105837.43, -187500.02, -187500.02, 0.000, 0.000, 0.000, 19:05:20.895, 1577145920895
73, -187500.02, 93926.05, 99228.71, 101837.63, 110029.52, 103802.23, -187500.02, -187500.02, 0.000, 0.000, 0.000, 19:05:20.895, 1577145920895
74, -187500.02, 94173.17, 99489.22, 102099.50, 110281.47, 103769.47, -187500.02, -187500.02, 0.000, 0.000, 0.000, 19:05:20.895, 1577145920895
75, -187500.02, 94769.74, 100057.02, 102668.20, 111013.80, 106258.09, -187500.02, -187500.02, 0.000, 0.000, 0.000, 19:05:20.895, 1577145920895
76, -187500.02, 94497.65, 99783.88, 102390.97, 110737.49, 106075.09, -187500.02, -187500.02, 0.000, 0.000, 0.000, 19:05:20.896, 1577145920896
77, -187500.02, 93987.12, 99296.41, 101899.66, 110119.95, 104132.52, -187500.02, -187500.02, 0.000, 0.000, 0.000, 19:05:20.896, 1577145920896
78, -187500.02, 94058.44, 99384.52, 101984.63, 110153.64, 103465.48, -187500.02, -187500.02, 0.182, 0.268, 0.982, 19:05:20.896, 1577145920896
79, -187500.02, 94721.44, 100026.63, 102621.51, 110956.98, 105951.65, -187500.02, -187500.02, 0.000, 0.000, 0.000, 19:05:20.896, 1577145920896
80, -187500.02, 94601.68, 99896.29, 102486.90, 110851.04, 106327.22, -187500.02, -187500.02, 0.000, 0.000, 0.000, 19:05:20.896, 1577145920896
81, -187500.02, 94062.58, 99379.67, 101956.98, 110199.86, 104515.86, -187500.02, -187500.02, 0.000, 0.000, 0.000, 19:05:20.896, 1577145920896
82, -187500.02, 93964.41, 99308.71, 101877.02, 110035.38, 103283.12, -187500.02, -187500.02, 0.000, 0.000, 0.000, 19:05:20.896, 1577145920896
83, -187500.02, 94637.22, 99965.24, 102526.80, 110846.92, 105526.96, -187500.02, -187500.02, 0.000, 0.000, 0.000, 19:05:20.896, 1577145920896
84, -187500.02, 94681.67, 100004.63, 102556.66, 110930.92, 106468.69, -187500.02, -187500.02, 0.000, 0.000, 0.000, 19:05:20.896, 1577145920896
85, -187500.02, 94174.40, 99516.55, 102061.66, 110332.09, 104883.01, -187500.02, -187500.02, 0.000, 0.000, 0.000, 19:05:20.896, 1577145920896
86, -187500.02, 93929.20, 99300.15, 101840.27, 110011.05, 103275.52, -187500.02, -187500.02, 0.000, 0.000, 0.000, 19:05:20.896, 1577145920896
87, -187500.02, 94537.57, 99895.64, 102429.84, 110725.40, 105068.84, -187500.02, -187500.02, 0.000, 0.000, 0.000, 19:05:20.896, 1577145920896
88, -187500.02, 94738.91, 100073.96, 102602.84, 110995.41, 106559.66, -187500.02, -187500.02, 0.178, 0.264, 0.982, 19:05:20.896, 1577145920896
89, -187500.02, 94253.26, 99604.16, 102129.61, 110439.70, 105230.58, -187500.02, -187500.02, 0.000, 0.000, 0.000, 19:05:20.896, 1577145920896
90, -187500.02, 93901.27, 99277.93, 101802.11, 109980.50, 103366.89, -187500.02, -187500.02, 0.000, 0.000, 0.000, 19:05:20.896, 1577145920896
91, -187500.02, 94420.16, 99791.44, 102315.69, 110567.26, 104595.61, -187500.02, -187500.02, 0.000, 0.000, 0.000, 19:05:20.896, 1577145920896
92, -187500.02, 94769.63, 100115.61, 102638.96, 111018.59, 106536.93, -187500.02, -187500.02, 0.000, 0.000, 0.000, 19:05:20.896, 1577145920896
93, -187500.02, 94337.52, 99691.98, 102213.52, 110539.79, 105540.84, -187500.02, -187500.02, 0.000, 0.000, 0.000, 19:05:20.896, 1577145920896
94, -187500.02, 93897.95, 99276.84, 101795.65, 109989.31, 103566.38, -187500.02, -187500.02, 0.000, 0.000, 0.000, 19:05:20.896, 1577145920896
95, -187500.02, 94274.13, 99656.77, 102176.28, 110405.05, 104126.47, -187500.02, -187500.02, 0.000, 0.000, 0.000, 19:05:20.896, 1577145920896
96, -187500.02, 94777.02, 100135.37, 102653.42, 111037.49, 106459.86, -187500.02, -187500.02, 0.000, 0.000, 0.000, 19:05:20.896, 1577145920896
97, -187500.02, 94437.37, 99796.80, 102311.77, 110661.13, 105875.29, -187500.02, -187500.02, 0.000, 0.000, 0.000, 19:05:20.896, 1577145920896
98, -187500.02, 93952.29, 99333.43, 101844.42, 110051.89, 103852.88, -187500.02, -187500.02, 0.176, 0.266, 0.984, 19:05:20.896, 1577145920896
99, -187500.02, 94157.34, 99550.30, 102059.52, 110255.14, 103721.84, -187500.02, -187500.02, 0.000, 0.000, 0.000, 19:05:20.896, 1577145920896
100, -187500.02, 94758.72, 100125.26, 102632.99, 110990.45, 106205.61, -187500.02, -187500.02, 0.000, 0.000, 0.000, 19:05:20.896, 1577145920896
101, -187500.02, 94525.62, 99886.26, 102392.96, 110756.16, 106103.46, -187500.02, -187500.02, 0.000, 0.000, 0.000, 19:05:20.896, 1577145920896
102, -187500.02, 94007.50, 99387.79, 101890.18, 110133.14, 104221.51, -187500.02, -187500.02, 0.000, 0.000, 0.000, 19:05:20.896, 1577145920896
103, -187500.02, 94045.38, 99444.65, 101948.52, 110132.34, 103462.22, -187500.02, -187500.02, 0.000, 0.000, 0.000, 19:05:20.896, 1577145920896
104, -187500.02, 94706.71, 100082.34, 102587.30, 110933.34, 105894.36, -187500.02, -187500.02, 0.000, 0.000, 0.000, 19:05:20.896, 1577145920896
105, -187500.02, 94604.70, 99967.86, 102470.63, 110857.66, 106338.60, -187500.02, -187500.02, 0.000, 0.000, 0.000, 19:05:20.896, 1577145920896
106, -187500.02, 94080.08, 99465.48, 101966.22, 110237.08, 104581.08, -187500.02, -187500.02, 0.000, 0.000, 0.000, 19:05:20.896, 1577145920896
107, -187500.02, 93950.16, 99358.44, 101860.36, 110029.34, 103273.46, -187500.02, -187500.02, 0.000, 0.000, 0.000, 19:05:20.896, 1577145920896
108, -187500.02, 94616.18, 100000.70, 102504.25, 110813.17, 105447.05, -187500.02, -187500.02, 0.174, 0.266, 0.984, 19:05:20.897, 1577145920897
109, -187500.02, 94662.41, 100022.58, 102526.76, 110918.38, 106492.13, -187500.02, -187500.02, 0.000, 0.000, 0.000, 19:05:20.897, 1577145920897
110, -187500.02, 94144.18, 99521.92, 102026.03, 110331.85, 104957.80, -187500.02, -187500.02, 0.000, 0.000, 0.000, 19:05:20.897, 1577145920897
111, -187500.02, 93890.84, 99286.24, 101791.02, 109976.86, 103282.55, -187500.02, -187500.02, 0.000, 0.000, 0.000, 19:05:20.897, 1577145920897
112, -187500.02, 94492.47, 99878.03, 102382.48, 110677.54, 104983.41, -187500.02, -187500.02, 0.000, 0.000, 0.000, 19:05:20.897, 1577145920897
113, -187500.02, 94733.44, 100101.70, 102602.73, 110990.35, 106563.30, -187500.02, -187500.02, 0.000, 0.000, 0.000, 19:05:20.897, 1577145920897
114, -187500.02, 94261.75, 99642.24, 102141.37, 110460.15, 105295.73, -187500.02, -187500.02, 0.000, 0.000, 0.000, 19:05:20.897, 1577145920897
115, -187500.02, 93886.45, 99290.05, 101789.91, 109973.33, 103365.41, -187500.02, -187500.02, 0.000, 0.000, 0.000, 19:05:20.897, 1577145920897
116, -187500.02, 94392.24, 99794.63, 102293.11, 110551.88, 104513.67, -187500.02, -187500.02, 0.000, 0.000, 0.000, 19:05:20.897, 1577145920897
117, -187500.02, 94773.52, 100144.35, 102641.84, 111037.34, 106559.93, -187500.02, -187500.02, 0.000, 0.000, 0.000, 19:05:20.897, 1577145920897
118, -187500.02, 94358.67, 99726.73, 102221.63, 110557.60, 105631.86, -187500.02, -187500.02, 0.000, 0.000, 0.000, 19:05:20.897, 1577145920897
119, -187500.02, 93911.27, 99308.53, 101803.23, 109997.76, 103633.05, -187500.02, -187500.02, 0.180, 0.272, 0.986, 19:05:20.897, 1577145920897
120, -187500.02, 94256.25, 99661.64, 102156.90, 110378.32, 104058.66, -187500.02, -187500.02, 0.000, 0.000, 0.000, 19:05:20.897, 1577145920897
121, -187500.02, 94775.23, 100148.69, 102643.07, 111017.00, 106400.70, -187500.02, -187500.02, 0.000, 0.000, 0.000, 19:05:20.897, 1577145920897
122, -187500.02, 94452.75, 99824.07, 102318.44, 110665.95, 105908.24, -187500.02, -187500.02, 0.000, 0.000, 0.000, 19:05:21.373, 1577145921373
123, -187500.02, 93958.35, 99357.52, 101852.74, 110067.38, 103922.40, -187500.02, -187500.02, 0.000, 0.000, 0.000, 19:05:21.373, 1577145921373
124, -187500.02, 94129.43, 99539.06, 102035.87, 110234.53, 103665.94, -187500.02, -187500.02, 0.000, 0.000, 0.000, 19:05:21.373, 1577145921373
125, -187500.02, 94734.58, 100108.14, 102606.73, 110971.29, 106153.13, -187500.02, -187500.02, 0.000, 0.000, 0.000, 19:05:21.374, 1577145921374
126, -187500.02, 94524.85, 99896.65, 102395.51, 110764.60, 106158.11, -187500.02, -187500.02, 0.000, 0.000, 0.000, 19:05:21.374, 1577145921374
127, -187500.02, 94011.91, 99409.94, 101908.15, 110145.80, 104255.22, -187500.02, -187500.02, 0.000, 0.000, 0.000, 19:05:21.374, 1577145921374
128, -187500.02, 94015.55, 99423.77, 101923.21, 110094.52, 103391.23, -187500.02, -187500.02, 0.000, 0.000, 0.000, 19:05:21.374, 1577145921374
129, -187500.02, 94679.84, 100059.88, 102562.41, 110893.55, 105804.23, -187500.02, -187500.02, 0.172, 0.270, 0.986, 19:05:21.374, 1577145921374
130, -187500.02, 94609.25, 99979.17, 102481.76, 110856.47, 106369.58, -187500.02, -187500.02, 0.000, 0.000, 0.000, 19:05:21.374, 1577145921374
131, -187500.02, 94087.07, 99473.75, 101973.10, 110230.48, 104637.19, -187500.02, -187500.02, 0.000, 0.000, 0.000, 19:05:21.374, 1577145921374
132, -187500.02, 93949.81, 99358.06, 101856.31, 110020.49, 103282.96, -187500.02, -187500.02, 0.000, 0.000, 0.000, 19:05:21.374, 1577145921374
133, -187500.02, 94597.52, 99988.05, 102484.98, 110785.12, 105369.34, -187500.02, -187500.02, 0.000, 0.000, 0.000, 19:05:21.374, 1577145921374
134, -187500.02, 94691.87, 100063.52, 102560.10, 110937.85, 106492.49, -187500.02, -187500.02, 0.000, 0.000, 0.000, 19:05:21.374, 1577145921374
135, -187500.02, 94179.36, 99566.00, 102061.73, 110353.27, 105013.72, -187500.02, -187500.02, 0.000, 0.000, 0.000, 19:05:21.374, 1577145921374
136, -187500.02, 93902.96, 99313.70, 101810.00, 109975.81, 103292.28, -187500.02, -187500.02, 0.000, 0.000, 0.000, 19:05:21.374, 1577145921374
137, -187500.02, 94494.52, 99894.57, 102392.91, 110668.22, 104907.10, -187500.02, -187500.02, 0.000, 0.000, 0.000, 19:05:21.374, 1577145921374
138, -187500.02, 94744.17, 100117.93, 102611.96, 110993.59, 106575.82, -187500.02, -187500.02, 0.000, 0.000, 0.000, 19:05:21.374, 1577145921374
139, -187500.02, 94281.09, 99662.87, 102156.43, 110474.37, 105361.63, -187500.02, -187500.02, 0.168, 0.268, 0.984, 19:05:21.374, 1577145921374
140, -187500.02, 93892.74, 99302.07, 101795.63, 109972.16, 103416.34, -187500.02, -187500.02, 0.000, 0.000, 0.000, 19:05:21.374, 1577145921374
141, -187500.02, 94362.65, 99767.59, 102262.54, 110497.70, 104394.27, -187500.02, -187500.02, 0.000, 0.000, 0.000, 19:05:21.374, 1577145921374
142, -187500.02, 94768.78, 100141.42, 102635.66, 111008.44, 106494.55, -187500.02, -187500.02, 0.000, 0.000, 0.000, 19:05:21.374, 1577145921374
143, -187500.02, 94367.45, 99739.76, 102233.70, 110561.54, 105654.79, -187500.02, -187500.02, 0.000, 0.000, 0.000, 19:05:21.374, 1577145921374
144, -187500.02, 93916.66, 99320.09, 101814.98, 110009.67, 103663.16, -187500.02, -187500.02, 0.000, 0.000, 0.000, 19:05:21.374, 1577145921374
145, -187500.02, 94253.68, 99665.11, 102161.08, 110369.85, 103984.91, -187500.02, -187500.02, 0.000, 0.000, 0.000, 19:05:21.374, 1577145921374
146, -187500.02, 94789.59, 100168.40, 102666.45, 111033.09, 106395.51, -187500.02, -187500.02, 0.000, 0.000, 0.000, 19:05:21.374, 1577145921374
147, -187500.02, 94470.34, 99842.29, 102339.76, 110691.34, 105975.88, -187500.02, -187500.02, 0.000, 0.000, 0.000, 19:05:21.374, 1577145921374
148, -187500.02, 93966.41, 99363.36, 101860.49, 110065.38, 103961.96, -187500.02, -187500.02, 0.000, 0.000, 0.000, 19:05:21.374, 1577145921374
149, -187500.02, 94116.91, 99526.33, 102024.00, 110197.47, 103580.69, -187500.02, -187500.02, 0.166, 0.268, 0.990, 19:05:21.374, 1577145921374
150, -187500.02, 94739.70, 100120.08, 102613.15, 110965.03, 106093.58, -187500.02, -187500.02, 0.000, 0.000, 0.000, 19:05:21.375, 1577145921375
151, -187500.02, 94556.39, 99926.58, 102420.67, 110783.98, 106202.25, -187500.02, -187500.02, 0.000, 0.000, 0.000, 19:05:21.375, 1577145921375
152, -187500.02, 94035.26, 99430.86, 101926.95, 110167.70, 104346.63, -187500.02, -187500.02, 0.000, 0.000, 0.000, 19:05:21.375, 1577145921375
153, -187500.02, 94020.45, 99442.10, 101938.39, 110100.82, 103368.41, -187500.02, -187500.02, 0.000, 0.000, 0.000, 19:05:21.375, 1577145921375
154, -187500.02, 94706.46, 100099.18, 102599.84, 110920.55, 105765.68, -187500.02, -187500.02, 0.000, 0.000, 0.000, 19:05:21.375, 1577145921375
155, -187500.02, 94664.33, 100038.16, 102544.86, 110915.25, 106438.96, -187500.02, -187500.02, 0.000, 0.000, 0.000, 19:05:21.375, 1577145921375
156, -187500.02, 94128.73, 99516.96, 102022.43, 110293.02, 104724.65, -187500.02, -187500.02, 0.000, 0.000, 0.000, 19:05:21.375, 1577145921375
157, -187500.02, 93954.88, 99356.88, 101863.98, 110018.34, 103271.88, -187500.02, -187500.02, 0.000, 0.000, 0.000, 19:05:21.375, 1577145921375
158, -187500.02, 94599.27, 99985.79, 102496.98, 110789.46, 105302.10, -187500.02, -187500.02, 0.000, 0.000, 0.000, 19:05:21.375, 1577145921375
159, -187500.02, 94706.64, 100066.05, 102581.49, 110959.15, 106524.61, -187500.02, -187500.02, 0.170, 0.266, 0.986, 19:05:21.375, 1577145921375
160, -187500.02, 94197.89, 99568.05, 102082.83, 110373.13, 105063.16, -187500.02, -187500.02, 0.000, 0.000, 0.000, 19:05:21.376, 1577145921376
161, -187500.02, 93909.02, 99306.54, 101820.44, 109975.23, 103311.70, -187500.02, -187500.02, 0.000, 0.000, 0.000, 19:05:21.376, 1577145921376
162, -187500.02, 94483.19, 99870.56, 102385.98, 110637.84, 104821.70, -187500.02, -187500.02, 0.000, 0.000, 0.000, 19:05:21.376, 1577145921376
163, -187500.02, 94746.31, 100105.81, 102622.29, 110998.63, 106551.79, -187500.02, -187500.02, 0.000, 0.000, 0.000, 19:05:21.376, 1577145921376
164, -187500.02, 94303.66, 99672.08, 102191.97, 110494.80, 105409.66, -187500.02, -187500.02, 0.000, 0.000, 0.000, 19:05:21.376, 1577145921376
165, -187500.02, 93909.94, 99303.34, 101828.17, 109993.80, 103452.37, -187500.02, -187500.02, 0.000, 0.000, 0.000, 19:05:21.376, 1577145921376
166, -187500.02, 94342.24, 99726.95, 102253.95, 110485.85, 104355.35, -187500.02, -187500.02, 0.000, 0.000, 0.000, 19:05:21.376, 1577145921376
167, -187500.02, 94763.44, 100113.86, 102641.53, 111008.57, 106504.18, -187500.02, -187500.02, 0.000, 0.000, 0.000, 19:05:21.376, 1577145921376
168, -187500.02, 94384.53, 99739.36, 102267.23, 110593.73, 105710.54, -187500.02, -187500.02, 0.000, 0.000, 0.000, 19:05:21.376, 1577145921376
169, -187500.02, 93938.12, 99322.88, 101852.20, 110034.04, 103708.91, -187500.02, -187500.02, 0.176, 0.268, 0.988, 19:05:21.376, 1577145921376
170, -187500.02, 94221.61, 99614.77, 102143.96, 110339.63, 103912.50, -187500.02, -187500.02, 0.000, 0.000, 0.000, 19:05:21.376, 1577145921376
171, -187500.02, 94773.25, 100132.05, 102659.55, 111020.38, 106346.02, -187500.02, -187500.02, 0.000, 0.000, 0.000, 19:05:21.376, 1577145921376
172, -187500.02, 94486.77, 99837.10, 102363.09, 110705.02, 105999.63, -187500.02, -187500.02, 0.000, 0.000, 0.000, 19:05:21.376, 1577145921376
173, -187500.02, 93970.33, 99340.34, 101867.16, 110076.93, 104029.95, -187500.02, -187500.02, 0.000, 0.000, 0.000, 19:05:21.376, 1577145921376
174, -187500.02, 94078.80, 99469.98, 101999.41, 110172.95, 103555.18, -187500.02, -187500.02, 0.000, 0.000, 0.000, 19:05:21.376, 1577145921376
175, -187500.02, 94739.79, 100105.44, 102637.17, 110971.55, 106054.95, -187500.02, -187500.02, 0.000, 0.000, 0.000, 19:05:21.376, 1577145921376
176, -187500.02, 94569.78, 99924.30, 102457.89, 110812.52, 106239.58, -187500.02, -187500.02, 0.000, 0.000, 0.000, 19:05:21.376, 1577145921376
177, -187500.02, 94027.41, 99399.75, 101928.00, 110174.18, 104396.14, -187500.02, -187500.02, 0.000, 0.000, 0.000, 19:05:21.376, 1577145921376
178, -187500.02, 93983.52, 99376.66, 101905.13, 110072.19, 103348.27, -187500.02, -187500.02, 0.000, 0.000, 0.000, 19:05:21.376, 1577145921376
179, -187500.02, 94671.44, 100039.72, 102567.81, 110875.40, 105677.88, -187500.02, -187500.02, 0.176, 0.272, 0.990, 19:05:21.376, 1577145921376
180, -187500.02, 94666.02, 100018.33, 102549.42, 110906.85, 106435.34, -187500.02, -187500.02, 0.000, 0.000, 0.000, 19:05:21.376, 1577145921376
181, -187500.02, 94135.33, 99503.01, 102036.34, 110297.67, 104765.95, -187500.02, -187500.02, 0.000, 0.000, 0.000, 19:05:21.376, 1577145921376
182, -187500.02, 93929.13, 99319.13, 101853.16, 110001.20, 103248.09, -187500.02, -187500.02, 0.000, 0.000, 0.000, 19:05:21.376, 1577145921376
183, -187500.02, 94562.02, 99927.36, 102461.91, 110750.14, 105223.07, -187500.02, -187500.02, 0.000, 0.000, 0.000, 19:05:21.376, 1577145921376
184, -187500.02, 94709.95, 100056.77, 102592.31, 110968.38, 106526.48, -187500.02, -187500.02, 0.000, 0.000, 0.000, 19:05:21.376, 1577145921376
185, -187500.02, 94216.13, 99574.36, 102109.27, 110395.73, 105118.71, -187500.02, -187500.02, 0.000, 0.000, 0.000, 19:05:21.376, 1577145921376
186, -187500.02, 93906.91, 99286.76, 101827.57, 109974.02, 103299.79, -187500.02, -187500.02, 0.000, 0.000, 0.000, 19:05:21.377, 1577145921377
187, -187500.02, 94459.20, 99829.84, 102377.98, 110621.30, 104729.97, -187500.02, -187500.02, 0.000, 0.000, 0.000, 19:05:21.377, 1577145921377
188, -187500.02, 94770.30, 100111.09, 102662.59, 111032.16, 106582.03, -187500.02, -187500.02, 0.000, 0.000, 0.000, 19:05:21.377, 1577145921377
189, -187500.02, 94315.84, 99658.69, 102212.29, 110514.80, 105487.06, -187500.02, -187500.02, 0.178, 0.272, 0.990, 19:05:21.377, 1577145921377
190, -187500.02, 93899.61, 99272.05, 101827.86, 109979.81, 103507.15, -187500.02, -187500.02, 0.000, 0.000, 0.000, 19:05:21.377, 1577145921377
191, -187500.02, 94328.52, 99692.78, 102254.24, 110459.12, 104277.21, -187500.02, -187500.02, 0.000, 0.000, 0.000, 19:05:21.377, 1577145921377
192, -187500.02, 94781.77, 100109.98, 102675.88, 111039.41, 106488.58, -187500.02, -187500.02, 0.000, 0.000, 0.000, 19:05:21.377, 1577145921377
193, -187500.02, 94415.89, 99748.63, 102316.80, 110639.77, 105798.36, -187500.02, -187500.02, 0.000, 0.000, 0.000, 19:05:21.377, 1577145921377
194, -187500.02, 93942.01, 99300.62, 101870.80, 110047.38, 103783.23, -187500.02, -187500.02, 0.000, 0.000, 0.000, 19:05:21.377, 1577145921377
195, -187500.02, 94197.52, 99556.97, 102128.11, 110307.60, 103851.68, -187500.02, -187500.02, 0.000, 0.000, 0.000, 19:05:21.377, 1577145921377
196, -187500.02, 94775.69, 100115.98, 102689.86, 111031.13, 106313.27, -187500.02, -187500.02, 0.000, 0.000, 0.000, 19:05:21.377, 1577145921377
197, -187500.02, 94495.20, 99819.76, 102392.98, 110723.97, 106051.16, -187500.02, -187500.02, 0.000, 0.000, 0.000, 19:05:21.377, 1577145921377
198, -187500.02, 93990.38, 99335.75, 101907.34, 110103.37, 104092.16, -187500.02, -187500.02, 0.000, 0.000, 0.000, 19:05:21.377, 1577145921377
199, -187500.02, 94096.08, 99461.55, 102035.24, 110187.91, 103538.71, -187500.02, -187500.02, 0.184, 0.272, 0.990, 19:05:21.377, 1577145921377
200, -187500.02, 94740.57, 100075.46, 102651.05, 110968.31, 105993.35, -187500.02, -187500.02, 0.000, 0.000, 0.000, 19:05:21.377, 1577145921377
201, -187500.02, 94591.10, 99909.97, 102484.06, 110834.63, 106280.09, -187500.02, -187500.02, 0.000, 0.000, 0.000, 19:05:21.377, 1577145921377
202, -187500.02, 94063.05, 99400.04, 101974.80, 110207.33, 104471.67, -187500.02, -187500.02, 0.000, 0.000, 0.000, 19:05:21.377, 1577145921377
203, -187500.02, 93992.19, 99353.75, 101927.64, 110067.79, 103316.45, -187500.02, -187500.02, 0.000, 0.000, 0.000, 19:05:21.377, 1577145921377
204, -187500.02, 94660.33, 99999.04, 102572.78, 110872.80, 105608.91, -187500.02, -187500.02, 0.000, 0.000, 0.000, 19:05:21.377, 1577145921377
205, -187500.02, 94665.80, 99980.42, 102552.21, 110913.78, 106472.95, -187500.02, -187500.02, 0.000, 0.000, 0.000, 19:05:21.377, 1577145921377
206, -187500.02, 94153.88, 99483.45, 102057.30, 110314.62, 104839.13, -187500.02, -187500.02, 0.000, 0.000, 0.000, 19:05:21.377, 1577145921377
207, -187500.02, 93936.98, 99298.88, 101871.05, 110031.29, 103275.31, -187500.02, -187500.02, 0.000, 0.000, 0.000, 19:05:21.377, 1577145921377
208, -187500.02, 94563.88, 99908.45, 102479.86, 110755.21, 105161.22, -187500.02, -187500.02, 0.000, 0.000, 0.000, 19:05:21.377, 1577145921377
209, -187500.02, 94725.39, 100038.38, 102611.63, 110987.56, 106578.19, -187500.02, -187500.02, 0.174, 0.270, 0.990, 19:05:21.377, 1577145921377
210, -187500.02, 94229.90, 99550.73, 102124.24, 110415.67, 105201.45, -187500.02, -187500.02, 0.000, 0.000, 0.000, 19:05:21.377, 1577145921377
211, -187500.02, 93897.80, 99247.02, 101821.80, 109974.31, 103339.27, -187500.02, -187500.02, 0.000, 0.000, 0.000, 19:05:21.377, 1577145921377
212, -187500.02, 94433.91, 99783.84, 102362.47, 110602.84, 104646.64, -187500.02, -187500.02, 0.000, 0.000, 0.000, 19:05:21.377, 1577145921377
213, -187500.02, 94765.70, 100083.82, 102659.26, 111034.09, 106558.49, -187500.02, -187500.02, 0.000, 0.000, 0.000, 19:05:21.377, 1577145921377
214, -187500.02, 94334.55, 99649.84, 102221.70, 110536.23, 105533.84, -187500.02, -187500.02, 0.000, 0.000, 0.000, 19:05:21.377, 1577145921377
215, -187500.02, 93931.86, 99279.12, 101848.29, 110010.45, 103557.39, -187500.02, -187500.02, 0.000, 0.000, 0.000, 19:05:21.377, 1577145921377
216, -187500.02, 94323.89, 99668.41, 102239.45, 110446.91, 104210.00, -187500.02, -187500.02, 0.000, 0.000, 0.000, 19:05:21.377, 1577145921377
217, -187500.02, 94800.98, 100112.55, 102685.05, 111046.68, 106477.54, -187500.02, -187500.02, 0.000, 0.000, 0.000, 19:05:21.377, 1577145921377
218, -187500.02, 94438.28, 99751.32, 102325.41, 110652.17, 105829.90, -187500.02, -187500.02, 0.000, 0.000, 0.000, 19:05:21.377, 1577145921377
219, -187500.02, 93951.77, 99293.76, 101865.37, 110059.92, 103827.56, -187500.02, -187500.02, 0.172, 0.268, 0.990, 19:05:21.377, 1577145921377
220, -187500.02, 94178.83, 99531.24, 102103.01, 110288.04, 103783.46, -187500.02, -187500.02, 0.000, 0.000, 0.000, 19:05:21.378, 1577145921378
221, -187500.02, 94777.16, 100099.27, 102670.90, 111018.34, 106248.57, -187500.02, -187500.02, 0.000, 0.000, 0.000, 19:05:21.378, 1577145921378
222, -187500.02, 94523.80, 99835.94, 102406.84, 110753.92, 106079.01, -187500.02, -187500.02, 0.000, 0.000, 0.000, 19:05:21.378, 1577145921378
223, -187500.02, 93997.04, 99328.31, 101898.56, 110123.60, 104166.81, -187500.02, -187500.02, 0.000, 0.000, 0.000, 19:05:21.378, 1577145921378
224, -187500.02, 94056.38, 99415.10, 101985.69, 110153.10, 103476.19, -187500.02, -187500.02, 0.000, 0.000, 0.000, 19:05:21.378, 1577145921378
225, -187500.02, 94728.16, 100059.93, 102632.05, 110965.19, 105945.50, -187500.02, -187500.02, 0.000, 0.000, 0.000, 19:05:21.378, 1577145921378
226, -187500.02, 94597.67, 99907.06, 102477.88, 110839.15, 106330.95, -187500.02, -187500.02, 0.000, 0.000, 0.000, 19:05:21.378, 1577145921378
227, -187500.02, 94074.78, 99403.63, 101973.02, 110224.30, 104538.52, -187500.02, -187500.02, 0.000, 0.000, 0.000, 19:05:21.378, 1577145921378
228, -187500.02, 93977.59, 99331.71, 101907.01, 110070.36, 103287.92, -187500.02, -187500.02, 0.000, 0.000, 0.000, 19:05:21.378, 1577145921378
229, -187500.02, 94630.35, 99967.01, 102536.37, 110848.06, 105536.62, -187500.02, -187500.02, 0.174, 0.272, 0.986, 19:05:21.378, 1577145921378
230, -187500.02, 94673.42, 99978.88, 102545.95, 110914.59, 106477.88, -187500.02, -187500.02, 0.000, 0.000, 0.000, 19:05:21.378, 1577145921378
231, -187500.02, 94163.11, 99486.49, 102055.27, 110325.68, 104874.00, -187500.02, -187500.02, 0.000, 0.000, 0.000, 19:05:21.378, 1577145921378
232, -187500.02, 93920.57, 99274.78, 101842.84, 109994.23, 103263.34, -187500.02, -187500.02, 0.000, 0.000, 0.000, 19:05:21.378, 1577145921378
233, -187500.02, 94529.16, 99862.41, 102430.91, 110700.92, 105063.08, -187500.02, -187500.02, 0.000, 0.000, 0.000, 19:05:21.378, 1577145921378
234, -187500.02, 94729.48, 100040.10, 102610.51, 110988.16, 106559.68, -187500.02, -187500.02, 0.000, 0.000, 0.000, 19:05:21.378, 1577145921378
235, -187500.02, 94249.46, 99573.24, 102144.81, 110449.35, 105251.32, -187500.02, -187500.02, 0.000, 0.000, 0.000, 19:05:21.378, 1577145921378
236, -187500.02, 93892.23, 99242.13, 101810.05, 109991.01, 103376.19, -187500.02, -187500.02, 0.000, 0.000, 0.000, 19:05:21.378, 1577145921378
237, -187500.02, 94394.68, 99739.23, 102310.03, 110555.95, 104556.70, -187500.02, -187500.02, 0.000, 0.000, 0.000, 19:05:21.378, 1577145921378
238, -187500.02, 94758.20, 100076.16, 102645.47, 111015.30, 106522.91, -187500.02, -187500.02, 0.000, 0.000, 0.000, 19:05:21.378, 1577145921378
239, -187500.02, 94349.03, 99670.85, 102238.95, 110563.81, 105578.62, -187500.02, -187500.02, 0.176, 0.270, 0.992, 19:05:21.378, 1577145921378
240, -187500.02, 93918.02, 99269.57, 101836.49, 110024.76, 103588.22, -187500.02, -187500.02, 0.000, 0.000, 0.000, 19:05:21.378, 1577145921378
241, -187500.02, 94272.01, 99617.30, 102185.60, 110406.30, 104112.50, -187500.02, -187500.02, 0.000, 0.000, 0.000, 19:05:21.378, 1577145921378
242, -187500.02, 94764.66, 100083.15, 102650.36, 111020.59, 106423.54, -187500.02, -187500.02, 0.000, 0.000, 0.000, 19:05:21.851, 1577145921851
243, -187500.02, 94439.36, 99756.01, 102322.08, 110658.52, 105866.82, -187500.02, -187500.02, 0.000, 0.000, 0.000, 19:05:21.851, 1577145921851
244, -187500.02, 93955.02, 99292.75, 101858.17, 110056.52, 103867.70, -187500.02, -187500.02, 0.000, 0.000, 0.000, 19:05:21.851, 1577145921851
245, -187500.02, 94151.09, 99499.14, 102065.82, 110259.84, 103733.64, -187500.02, -187500.02, 0.000, 0.000, 0.000, 19:05:21.851, 1577145921851
246, -187500.02, 94753.65, 100072.18, 102638.80, 111004.33, 106230.41, -187500.02, -187500.02, 0.000, 0.000, 0.000, 19:05:21.851, 1577145921851
247, -187500.02, 94522.53, 99837.05, 102400.78, 110762.88, 106142.66, -187500.02, -187500.02, 0.000, 0.000, 0.000, 19:05:21.851, 1577145921851
248, -187500.02, 94011.86, 99348.67, 101911.70, 110142.76, 104212.95, -187500.02, -187500.02, 0.000, 0.000, 0.000, 19:05:21.851, 1577145921851
249, -187500.02, 94042.15, 99400.17, 101966.45, 110144.61, 103437.61, -187500.02, -187500.02, 0.178, 0.266, 0.986, 19:05:21.851, 1577145921851
250, -187500.02, 94702.75, 100031.79, 102594.48, 110939.51, 105896.80, -187500.02, -187500.02, 0.000, 0.000, 0.000, 19:05:21.852, 1577145921852
251, -187500.02, 94615.24, 99925.28, 102486.97, 110860.71, 106356.88, -187500.02, -187500.02, 0.000, 0.000, 0.000, 19:05:21.852, 1577145921852
252, -187500.02, 94097.06, 99430.44, 101992.80, 110242.09, 104579.18, -187500.02, -187500.02, 0.000, 0.000, 0.000, 19:05:21.852, 1577145921852
253, -187500.02, 93950.32, 99308.30, 101870.48, 110031.06, 103243.30, -187500.02, -187500.02, 0.000, 0.000, 0.000, 19:05:21.852, 1577145921852
254, -187500.02, 94624.12, 99957.87, 102519.49, 110830.02, 105451.23, -187500.02, -187500.02, 0.000, 0.000, 0.000, 19:05:21.852, 1577145921852
255, -187500.02, 94689.54, 100004.20, 102567.16, 110956.94, 106531.20, -187500.02, -187500.02, 0.000, 0.000, 0.000, 19:05:21.852, 1577145921852
0, -187500.02, 94178.76, 99509.12, 102068.81, 110362.61, 104984.60, -187500.02, -187500.02, 0.000, 0.000, 0.000, 19:05:21.852, 1577145921852
1, -187500.02, 93918.36, 99276.01, 101835.04, 109999.34, 103294.25, -187500.02, -187500.02, 0.000, 0.000, 0.000, 19:05:21.852, 1577145921852
2, -187500.02, 94515.55, 99860.46, 102420.63, 110698.66, 104987.62, -187500.02, -187500.02, 0.000, 0.000, 0.000, 19:05:21.853, 1577145921853
3, -187500.02, 94732.81, 100049.16, 102608.12, 110993.53, 106555.48, -187500.02, -187500.02, 0.000, 0.000, 0.000, 19:05:21.853, 1577145921853
4, -187500.02, 94255.52, 99579.52, 102136.43, 110433.91, 105266.95, -187500.02, -187500.02, 0.178, 0.270, 0.982, 19:05:21.853, 1577145921853
5, -187500.02, 93893.17, 99250.77, 101806.91, 109966.42, 103378.55, -187500.02, -187500.02, 0.000, 0.000, 0.000, 19:05:21.854, 1577145921854
6, -187500.02, 94385.40, 99741.02, 102297.63, 110559.08, 104537.34, -187500.02, -187500.02, 0.000, 0.000, 0.000, 19:05:21.854, 1577145921854
7, -187500.02, 94769.90, 100100.20, 102656.69, 111045.07, 106568.58, -187500.02, -187500.02, 0.000, 0.000, 0.000, 19:05:21.854, 1577145921854
8, -187500.02, 94355.20, 99685.00, 102240.38, 110578.14, 105636.38, -187500.02, -187500.02, 0.000, 0.000, 0.000, 19:05:21.854, 1577145921854
9, -187500.02, 93904.77, 99257.48, 101812.44, 110004.87, 103606.84, -187500.02, -187500.02, 0.000, 0.000, 0.000, 19:05:21.854, 1577145921854
10, -187500.02, 94256.43, 99615.09, 102168.28, 110378.92, 104039.48, -187500.02, -187500.02, 0.000, 0.000, 0.000, 19:05:21.854, 1577145921854
11, -187500.02, 94769.76, 100095.40, 102648.95, 111025.58, 106421.21, -187500.02, -187500.02, 0.000, 0.000, 0.000, 19:05:21.854, 1577145921854
12, -187500.02, 94440.68, 99765.91, 102317.95, 110662.12, 105921.78, -187500.02, -187500.02, 0.000, 0.000, 0.000, 19:05:21.854, 1577145921854
13, -187500.02, 93940.42, 99290.73, 101841.90, 110058.00, 103916.59, -187500.02, -187500.02, 0.000, 0.000, 0.000, 19:05:21.854, 1577145921854
14, -187500.02, 94133.72, 99495.95, 102048.59, 110245.23, 103674.85, -187500.02, -187500.02, 0.174, 0.268, 0.986, 19:05:21.854, 1577145921854
15, -187500.02, 94749.80, 100084.23, 102639.34, 111005.06, 106170.24, -187500.02, -187500.02, 0.000, 0.000, 0.000, 19:05:21.854, 1577145921854
16, -187500.02, 94538.47, 99860.46, 102411.47, 110783.60, 106175.37, -187500.02, -187500.02, 0.000, 0.000, 0.000, 19:05:21.854, 1577145921854
17, -187500.02, 94016.64, 99364.23, 101915.59, 110161.87, 104273.88, -187500.02, -187500.02, 0.000, 0.000, 0.000, 19:05:21.854, 1577145921854
18, -187500.02, 94031.48, 99403.63, 101953.52, 110125.63, 103394.09, -187500.02, -187500.02, 0.000, 0.000, 0.000, 19:05:21.854, 1577145921854
19, -187500.02, 94693.48, 100030.98, 102580.94, 110920.93, 105824.98, -187500.02, -187500.02, 0.000, 0.000, 0.000, 19:05:21.854, 1577145921854
20, -187500.02, 94617.19, 99941.53, 102491.15, 110873.97, 106375.30, -187500.02, -187500.02, 0.000, 0.000, 0.000, 19:05:21.854, 1577145921854
21, -187500.02, 94099.97, 99442.37, 101991.99, 110256.41, 104644.36, -187500.02, -187500.02, 0.000, 0.000, 0.000, 19:05:21.854, 1577145921854
22, -187500.02, 93951.62, 99322.61, 101870.98, 110047.52, 103290.31, -187500.02, -187500.02, 0.000, 0.000, 0.000, 19:05:21.854, 1577145921854
23, -187500.02, 94612.52, 99960.10, 102507.40, 110826.83, 105402.58, -187500.02, -187500.02, 0.000, 0.000, 0.000, 19:05:21.854, 1577145921854
24, -187500.02, 94693.97, 100015.67, 102562.05, 110951.89, 106506.80, -187500.02, -187500.02, 0.174, 0.266, 0.982, 19:05:21.854, 1577145921854
25, -187500.02, 94190.49, 99532.02, 102079.03, 110366.72, 104981.45, -187500.02, -187500.02, 0.000, 0.000, 0.000, 19:05:21.854, 1577145921854
26, -187500.02, 93913.51, 99280.97, 101826.34, 109992.93, 103280.44, -187500.02, -187500.02, 0.000, 0.000, 0.000, 19:05:21.854, 1577145921854
27, -187500.02, 94504.58, 99861.65, 102406.66, 110686.77, 104934.15, -187500.02, -187500.02, 0.000, 0.000, 0.000, 19:05:21.854, 1577145921854
28, -187500.02, 94756.33, 100086.70, 102633.84, 111022.59, 106585.63, -187500.02, -187500.02, 0.000, 0.000, 0.000, 19:05:21.854, 1577145921854
29, -187500.02, 94273.46, 99609.56, 102152.27, 110469.67, 105354.90, -187500.02, -187500.02, 0.000, 0.000, 0.000, 19:05:21.854, 1577145921854
30, -187500.02, 93893.71, 99248.16, 101790.69, 109978.05, 103419.93, -187500.02, -187500.02, 0.000, 0.000, 0.000, 19:05:21.854, 1577145921854
31, -187500.02, 94363.52, 99716.85, 102265.76, 110519.52, 104416.73, -187500.02, -187500.02, 0.000, 0.000, 0.000, 19:05:21.854, 1577145921854
32, -187500.02, 94769.41, 100094.69, 102641.73, 111040.84, 106536.73, -187500.02, -187500.02, 0.000, 0.000, 0.000, 19:05:21.854, 1577145921854
33, -187500.02, 94373.42, 99697.78, 102243.78, 110583.30, 105673.97, -187500.02, -187500.02, 0.000, 0.000, 0.000, 19:05:21.854, 1577145921854
34, -187500.02, 93921.73, 99281.15, 101826.07, 110025.61, 103659.52, -187500.02, -187500.02, 0.176, 0.266, 0.980, 19:05:21.854, 1577145921854
35, -187500.02, 94248.02, 99611.84, 102157.33, 110374.85, 103991.30, -187500.02, -187500.02, 0.000, 0.000, 0.000, 19:05:21.854, 1577145921854
36, -187500.02, 94778.19, 100111.29, 102658.18, 111033.09, 106383.93, -187500.02, -187500.02, 0.000, 0.000, 0.000, 19:05:21.855, 1577145921855
37, -187500.02, 94449.22, 99774.02, 102321.74, 110684.78, 105949.86, -187500.02, -187500.02, 0.000, 0.000, 0.000, 19:05:21.855, 1577145921855
38, -187500.02, 93940.49, 99290.16, 101837.74, 110067.92, 103960.33, -187500.02, -187500.02, 0.000, 0.000, 0.000, 19:05:21.855, 1577145921855
39, -187500.02, 94103.30, 99469.35, 102015.05, 110207.53, 103601.34, -187500.02, -187500.02, 0.000, 0.000, 0.000, 19:05:21.855, 1577145921855
40, -187500.02, 94740.34, 100077.77, 102625.64, 110980.61, 106112.91, -187500.02, -187500.02, 0.000, 0.000, 0.000, 19:05:21.855, 1577145921855
41, -187500.02, 94547.61, 99875.23, 102423.78, 110795.23, 106205.70, -187500.02, -187500.02, 0.000, 0.000, 0.000, 19:05:21.855, 1577145921855
42, -187500.02, 94029.00, 99378.89, 101925.23, 110166.76, 104325.16, -187500.02, -187500.02, 0.000, 0.000, 0.000, 19:05:21.855, 1577145921855
43, -187500.02, 94014.14, 99385.55, 101931.15, 110108.66, 103359.54, -187500.02, -187500.02, 0.000, 0.000, 0.000, 19:05:21.855, 1577145921855
44, -187500.02, 94675.28, 100022.63, 102564.51, 110911.50, 105728.76, -187500.02, -187500.02, 0.176, 0.268, 0.984, 19:05:21.855, 1577145921855
45, -187500.02, 94627.78, 99960.38, 102495.58, 110894.38, 106408.34, -187500.02, -187500.02, 0.000, 0.000, 0.000, 19:05:21.855, 1577145921855
46, -187500.02, 94091.61, 99447.36, 101976.77, 110261.77, 104692.15, -187500.02, -187500.02, 0.000, 0.000, 0.000, 19:05:21.855, 1577145921855
47, -187500.02, 93922.16, 99299.52, 101818.07, 110000.77, 103234.12, -187500.02, -187500.02, 0.000, 0.000, 0.000, 19:05:21.855, 1577145921855
48, -187500.02, 94584.82, 99943.34, 102458.05, 110781.26, 105299.53, -187500.02, -187500.02, 0.000, 0.000, 0.000, 19:05:21.855, 1577145921855
49, -187500.02, 94703.33, 100038.18, 102548.52, 110964.36, 106544.02, -187500.02, -187500.02, 0.000, 0.000, 0.000, 19:05:21.855, 1577145921855
50, -187500.02, 94198.48, 99543.47, 102052.72, 110375.32, 105085.36, -187500.02, -187500.02, 0.000, 0.000, 0.000, 19:05:21.855, 1577145921855
51, -187500.02, 93896.37, 99282.73, 101786.91, 109987.08, 103295.59, -187500.02, -187500.02, 0.000, 0.000, 0.000, 19:05:21.855, 1577145921855
52, -187500.02, 94479.34, 99858.52, 102359.09, 110652.48, 104814.12, -187500.02, -187500.02, 0.000, 0.000, 0.000, 19:05:21.855, 1577145921855
53, -187500.02, 94769.70, 100122.13, 102622.29, 111030.12, 106586.52, -187500.02, -187500.02, 0.000, 0.000, 0.000, 19:05:21.855, 1577145921855
54, -187500.02, 94304.38, 99664.30, 102162.35, 110501.77, 105419.45, -187500.02, -187500.02, 0.168, 0.268, 0.986, 19:05:21.855, 1577145921855
55, -187500.02, 93895.95, 99278.89, 101773.08, 109968.73, 103455.70, -187500.02, -187500.02, 0.000, 0.000, 0.000, 19:05:21.855, 1577145921855
56, -187500.02, 94343.09, 99731.22, 102224.98, 110489.14, 104340.53, -187500.02, -187500.02, 0.000, 0.000, 0.000, 19:05:21.855, 1577145921855
57, -187500.02, 94781.16, 100141.58, 102633.87, 111042.88, 106511.71, -187500.02, -187500.02, 0.000, 0.000, 0.000, 19:05:21.855, 1577145921855
58, -187500.02, 94405.59, 99765.53, 102256.12, 110612.70, 105736.63, -187500.02, -187500.02, 0.000, 0.000, 0.000, 19:05:21.855, 1577145921855
59, -187500.02, 93940.00, 99327.75, 101817.53, 110032.45, 103723.40, -187500.02, -187500.02, 0.000, 0.000, 0.000, 19:05:21.855, 1577145921855
60, -187500.02, 94212.66, 99612.91, 102102.38, 110342.16, 103912.45, -187500.02, -187500.02, 0.000, 0.000, 0.000, 19:05:21.855, 1577145921855
61, -187500.02, 94779.46, 100152.30, 102640.55, 111046.77, 106367.61, -187500.02, -187500.02, 0.000, 0.000, 0.000, 19:05:21.855, 1577145921855
62, -187500.02, 94494.86, 99860.86, 102349.41, 110737.80, 106029.88, -187500.02, -187500.02, 0.000, 0.000, 0.000, 19:05:21.855, 1577145921855
63, -187500.02, 93994.85, 99383.92, 101873.13, 110113.59, 104029.13, -187500.02, -187500.02, 0.000, 0.000, 0.000, 19:05:21.855, 1577145921855
64, -187500.02, 94098.23, 99497.65, 101984.77, 110198.21, 103566.78, -187500.02, -187500.02, 0.174, 0.266, 0.988, 19:05:21.855, 1577145921855
65, -187500.02, 94738.09, 100106.53, 102592.36, 110978.82, 106080.19, -187500.02, -187500.02, 0.000, 0.000, 0.000, 19:05:21.855, 1577145921855
66, -187500.02, 94576.58, 99939.74, 102427.76, 110833.63, 106273.66, -187500.02, -187500.02, 0.000, 0.000, 0.000, 19:05:21.856, 1577145921856
67, -187500.02, 94058.95, 99438.30, 101925.83, 110212.96, 104428.33, -187500.02, -187500.02, 0.000, 0.000, 0.000, 19:05:21.856, 1577145921856
68, -187500.02, 94004.80, 99405.02, 101889.46, 110089.36, 103349.59, -187500.02, -187500.02, 0.000, 0.000, 0.000, 19:05:21.856, 1577145921856
69, -187500.02, 94678.32, 100050.61, 102537.04, 110892.81, 105679.34, -187500.02, -187500.02, 0.000, 0.000, 0.000, 19:05:21.856, 1577145921856
70, -187500.02, 94659.03, 100009.30, 102494.05, 110892.79, 106421.05, -187500.02, -187500.02, 0.000, 0.000, 0.000, 19:05:21.856, 1577145921856
71, -187500.02, 94143.94, 99512.66, 101996.82, 110296.09, 104765.73, -187500.02, -187500.02, 0.000, 0.000, 0.000, 19:05:21.856, 1577145921856
72, -187500.02, 93940.67, 99345.81, 101826.25, 110029.66, 103275.20, -187500.02, -187500.02, 0.000, 0.000, 0.000, 19:05:21.856, 1577145921856
73, -187500.02, 94582.50, 99963.14, 102440.08, 110767.15, 105217.57, -187500.02, -187500.02, 0.000, 0.000, 0.000, 19:05:21.856, 1577145921856
74, -187500.02, 94722.78, 100078.44, 102553.51, 110970.23, 106541.22, -187500.02, -187500.02, 0.176, 0.274, 0.990, 19:05:21.856, 1577145921856
75, -187500.02, 94228.63, 99599.33, 102072.50, 110413.84, 105168.77, -187500.02, -187500.02, 0.000, 0.000, 0.000, 19:05:21.856, 1577145921856
76, -187500.02, 93908.28, 99312.91, 101783.27, 109995.01, 103343.58, -187500.02, -187500.02, 0.000, 0.000, 0.000, 19:05:21.856, 1577145921856
77, -187500.02, 94468.33, 99863.01, 102331.73, 110632.73, 104750.62, -187500.02, -187500.02, 0.000, 0.000, 0.000, 19:05:21.856, 1577145921856
78, -187500.02, 94775.93, 100145.06, 102613.57, 111036.27, 106595.42, -187500.02, -187500.02, 0.000, 0.000, 0.000, 19:05:21.856, 1577145921856
79, -187500.02, 94324.13, 99701.65, 102169.44, 110520.97, 105478.17, -187500.02, -187500.02, 0.000, 0.000, 0.000, 19:05:21.856, 1577145921856
80, -187500.02, 93899.77, 99300.17, 101762.70, 109984.10, 103480.62, -187500.02, -187500.02, 0.000, 0.000, 0.000, 19:05:21.856, 1577145921856
81, -187500.02, 94320.52, 99716.11, 102179.43, 110456.15, 104260.89, -187500.02, -187500.02, 0.000, 0.000, 0.000, 19:05:21.856, 1577145921856
82, -187500.02, 94780.13, 100149.55, 102614.59, 111043.93, 106513.57, -187500.02, -187500.02, 0.000, 0.000, 0.000, 19:05:21.856, 1577145921856
83, -187500.02, 94393.07, 99764.51, 102229.41, 110617.82, 105779.42, -187500.02, -187500.02, 0.000, 0.000, 0.000, 19:05:21.856, 1577145921856
84, -187500.02, 93914.09, 99314.67, 101779.85, 110026.97, 103758.59, -187500.02, -187500.02, 0.176, 0.270, 0.988, 19:05:21.856, 1577145921856
85, -187500.02, 94174.63, 99583.88, 102049.08, 110298.57, 103835.30, -187500.02, -187500.02, 0.000, 0.000, 0.000, 19:05:21.856, 1577145921856
86, -187500.02, 94759.08, 100136.59, 102600.78, 111013.22, 106314.64, -187500.02, -187500.02, 0.000, 0.000, 0.000, 19:05:21.856, 1577145921856
87, -187500.02, 94504.98, 99872.46, 102334.89, 110741.13, 106081.58, -187500.02, -187500.02, 0.000, 0.000, 0.000, 19:05:21.856, 1577145921856
88, -187500.02, 94001.66, 99388.84, 101852.42, 110125.39, 104125.28, -187500.02, -187500.02, 0.000, 0.000, 0.000, 19:05:21.856, 1577145921856
89, -187500.02, 94093.98, 99501.78, 101962.17, 110184.55, 103523.33, -187500.02, -187500.02, 0.000, 0.000, 0.000, 19:05:21.856, 1577145921856
90, -187500.02, 94753.16, 100134.94, 102593.48, 110969.37, 106004.62, -187500.02, -187500.02, 0.000, 0.000, 0.000, 19:05:21.856, 1577145921856
91, -187500.02, 94610.46, 99979.26, 102439.02, 110846.74, 106289.67, -187500.02, -187500.02, 0.000, 0.000, 0.000, 19:05:21.856, 1577145921856
92, -187500.02, 94073.30, 99461.64, 101920.87, 110225.12, 104492.03, -187500.02, -187500.02, 0.000, 0.000, 0.000, 19:05:21.856, 1577145921856
93, -187500.02, 93994.42, 99401.58, 101858.88, 110074.83, 103324.02, -187500.02, -187500.02, 0.000, 0.000, 0.000, 19:05:21.856, 1577145921856
94, -187500.02, 94664.17, 100051.05, 102508.94, 110875.89, 105611.54, -187500.02, -187500.02, 0.172, 0.274, 0.982, 19:05:21.856, 1577145921856
95, -187500.02, 94670.99, 100043.19, 102498.75, 110927.44, 106480.89, -187500.02, -187500.02, 0.000, 0.000, 0.000, 19:05:21.856, 1577145921856
96, -187500.02, 94159.27, 99545.97, 102000.02, 110319.58, 104848.34, -187500.02, -187500.02, 0.000, 0.000, 0.000, 19:05:21.856, 1577145921856
97, -187500.02, 93935.04, 99345.43, 101799.09, 110005.34, 103260.59, -187500.02, -187500.02, 0.000, 0.000, 0.000, 19:05:21.857, 1577145921857
98, -187500.02, 94570.32, 99959.32, 102411.53, 110744.22, 105143.61, -187500.02, -187500.02, 0.000, 0.000, 0.000, 19:05:21.857, 1577145921857
99, -187500.02, 94738.49, 100100.41, 102553.17, 110979.34, 106568.82, -187500.02, -187500.02, 0.000, 0.000, 0.000, 19:05:21.857, 1577145921857
100, -187500.02, 94255.25, 99638.98, 102092.91, 110433.22, 105198.44, -187500.02, -187500.02, 0.000, 0.000, 0.000, 19:05:21.857, 1577145921857
101, -187500.02, 93912.05, 99322.88, 101776.16, 109996.15, 103324.09, -187500.02, -187500.02, 0.000, 0.000, 0.000, 19:05:21.857, 1577145921857
102, -187500.02, 94443.47, 99840.45, 102289.34, 110587.45, 104647.20, -187500.02, -187500.02, 0.000, 0.000, 0.000, 19:05:21.857, 1577145921857
103, -187500.02, 94787.29, 100150.32, 102597.90, 111024.84, 106582.03, -187500.02, -187500.02, 0.000, 0.000, 0.000, 19:05:21.857, 1577145921857
104, -187500.02, 94352.27, 99724.96, 102173.15, 110544.20, 105557.49, -187500.02, -187500.02, 0.170, 0.274, 0.984, 19:05:21.857, 1577145921857
105, -187500.02, 93924.46, 99332.31, 101777.84, 110008.04, 103577.91, -187500.02, -187500.02, 0.000, 0.000, 0.000, 19:05:21.857, 1577145921857
106, -187500.02, 94312.49, 99721.25, 102166.78, 110436.19, 104202.76, -187500.02, -187500.02, 0.000, 0.000, 0.000, 19:05:22.333, 1577145922333
107, -187500.02, 94817.57, 100196.81, 102642.58, 111064.90, 106496.85, -187500.02, -187500.02, 0.000, 0.000, 0.000, 19:05:22.333, 1577145922333
108, -187500.02, 94457.80, 99832.68, 102276.17, 110662.30, 105879.05, -187500.02, -187500.02, 0.000, 0.000, 0.000, 19:05:22.333, 1577145922333
109, -187500.02, 93960.98, 99363.00, 101808.59, 110056.84, 103850.90, -187500.02, -187500.02, 0.000, 0.000, 0.000, 19:05:22.333, 1577145922333
110, -187500.02, 94188.39, 99598.32, 102043.22, 110280.73, 103784.22, -187500.02, -187500.02, 0.000, 0.000, 0.000, 19:05:22.333, 1577145922333
111, -187500.02, 94792.94, 100173.43, 102616.07, 111018.52, 106268.77, -187500.02, -187500.02, 0.000, 0.000, 0.000, 19:05:22.334, 1577145922334
112, -187500.02, 94534.89, 99908.78, 102351.30, 110750.97, 106115.08, -187500.02, -187500.02, 0.000, 0.000, 0.000, 19:05:22.334, 1577145922334
113, -187500.02, 94013.31, 99410.23, 101854.57, 110129.86, 104182.80, -187500.02, -187500.02, 0.000, 0.000, 0.000, 19:05:22.334, 1577145922334
114, -187500.02, 94063.24, 99479.97, 101924.38, 110138.98, 103477.76, -187500.02, -187500.02, 0.172, 0.272, 0.986, 19:05:22.334, 1577145922334
115, -187500.02, 94725.44, 100108.07, 102550.83, 110918.80, 105919.91, -187500.02, -187500.02, 0.000, 0.000, 0.000, 19:05:22.334, 1577145922334
116, -187500.02, 94617.45, 99987.02, 102427.55, 110831.77, 106314.59, -187500.02, -187500.02, 0.000, 0.000, 0.000, 19:05:22.334, 1577145922334
117, -187500.02, 94093.48, 99484.99, 101927.86, 110211.22, 104528.24, -187500.02, -187500.02, 0.000, 0.000, 0.000, 19:05:22.334, 1577145922334
118, -187500.02, 93970.40, 99389.66, 101831.33, 110045.08, 103301.96, -187500.02, -187500.02, 0.000, 0.000, 0.000, 19:05:22.334, 1577145922334
119, -187500.02, 94645.06, 100042.00, 102476.27, 110832.88, 105532.73, -187500.02, -187500.02, 0.000, 0.000, 0.000, 19:05:22.334, 1577145922334
120, -187500.02, 94695.35, 100066.95, 102502.95, 110925.45, 106496.07, -187500.02, -187500.02, 0.000, 0.000, 0.000, 19:05:22.334, 1577145922334
121, -187500.02, 94182.11, 99574.58, 102009.71, 110334.27, 104936.66, -187500.02, -187500.02, 0.000, 0.000, 0.000, 19:05:22.334, 1577145922334
122, -187500.02, 93931.23, 99349.70, 101782.09, 109987.63, 103287.72, -187500.02, -187500.02, 0.000, 0.000, 0.000, 19:05:22.334, 1577145922334
123, -187500.02, 94557.62, 99958.31, 102392.66, 110715.77, 105060.62, -187500.02, -187500.02, 0.000, 0.000, 0.000, 19:05:22.334, 1577145922334
124, -187500.02, 94758.07, 100131.21, 102566.27, 110996.70, 106586.30, -187500.02, -187500.02, 0.172, 0.270, 0.984, 19:05:22.334, 1577145922334
125, -187500.02, 94270.36, 99661.09, 102093.34, 110441.93, 105277.90, -187500.02, -187500.02, 0.000, 0.000, 0.000, 19:05:22.334, 1577145922334
126, -187500.02, 93915.73, 99331.35, 101762.66, 109968.66, 103363.31, -187500.02, -187500.02, 0.000, 0.000, 0.000, 19:05:22.334, 1577145922334
127, -187500.02, 94412.13, 99816.36, 102248.01, 110536.37, 104534.59, -187500.02, -187500.02, 0.000, 0.000, 0.000, 19:05:22.334, 1577145922334
128, -187500.02, 94776.49, 100153.45, 102585.20, 111006.31, 106568.06, -187500.02, -187500.02, 0.000, 0.000, 0.000, 19:05:22.334, 1577145922334
129, -187500.02, 94350.94, 99737.73, 102166.27, 110526.83, 105587.20, -187500.02, -187500.02, 0.000, 0.000, 0.000, 19:05:22.334, 1577145922334
130, -187500.02, 93916.15, 99335.58, 101762.86, 109989.29, 103590.16, -187500.02, -187500.02, 0.000, 0.000, 0.000, 19:05:22.334, 1577145922334
131, -187500.02, 94277.45, 99699.80, 102129.05, 110397.63, 104102.66, -187500.02, -187500.02, 0.000, 0.000, 0.000, 19:05:22.334, 1577145922334
132, -187500.02, 94793.70, 100185.39, 102613.97, 111034.39, 106461.04, -187500.02, -187500.02, 0.000, 0.000, 0.000, 19:05:22.334, 1577145922334
133, -187500.02, 94460.50, 99852.34, 102276.93, 110670.59, 105924.00, -187500.02, -187500.02, 0.000, 0.000, 0.000, 19:05:22.334, 1577145922334
134, -187500.02, 93950.16, 99365.70, 101790.18, 110046.30, 103876.84, -187500.02, -187500.02, 0.174, 0.268, 0.986, 19:05:22.335, 1577145922335
135, -187500.02, 94142.17, 99575.59, 101998.70, 110239.20, 103727.73, -187500.02, -187500.02, 0.000, 0.000, 0.000, 19:05:22.335, 1577145922335
136, -187500.02, 94771.04, 100172.60, 102597.70, 110996.45, 106241.62, -187500.02, -187500.02, 0.000, 0.000, 0.000, 19:05:22.335, 1577145922335
137, -187500.02, 94537.93, 99924.63, 102346.53, 110750.88, 106169.24, -187500.02, -187500.02, 0.000, 0.000, 0.000, 19:05:22.335, 1577145922335
138, -187500.02, 94014.23, 99427.20, 101848.73, 110122.03, 104224.80, -187500.02, -187500.02, 0.000, 0.000, 0.000, 19:05:22.335, 1577145922335
139, -187500.02, 94040.06, 99474.98, 101894.76, 110109.77, 103421.25, -187500.02, -187500.02, 0.000, 0.000, 0.000, 19:05:22.335, 1577145922335
140, -187500.02, 94702.75, 100108.21, 102528.90, 110912.39, 105891.07, -187500.02, -187500.02, 0.000, 0.000, 0.000, 19:05:22.335, 1577145922335
141, -187500.02, 94606.15, 99996.29, 102417.09, 110843.34, 106385.20, -187500.02, -187500.02, 0.000, 0.000, 0.000, 19:05:22.335, 1577145922335
142, -187500.02, 94075.23, 99487.92, 101905.80, 110219.76, 104621.70, -187500.02, -187500.02, 0.000, 0.000, 0.000, 19:05:22.335, 1577145922335
143, -187500.02, 93948.65, 99386.31, 101802.89, 110007.10, 103272.14, -187500.02, -187500.02, 0.000, 0.000, 0.000, 19:05:22.335, 1577145922335
144, -187500.02, 94610.15, 100022.33, 102436.72, 110791.55, 105441.65, -187500.02, -187500.02, 0.000, 0.000, 0.000, 19:05:22.335, 1577145922335
145, -187500.02, 94669.09, 100063.46, 102476.95, 110905.62, 106507.04, -187500.02, -187500.02, 0.176, 0.272, 0.986, 19:05:22.335, 1577145922335
146, -187500.02, 94172.30, 99580.13, 101993.89, 110324.66, 104973.38, -187500.02, -187500.02, 0.000, 0.000, 0.000, 19:05:22.335, 1577145922335
147, -187500.02, 93908.86, 99347.11, 101761.05, 109974.40, 103284.44, -187500.02, -187500.02, 0.000, 0.000, 0.000, 19:05:22.335, 1577145922335
148, -187500.02, 94500.98, 99928.23, 102340.48, 110667.80, 104968.33, -187500.02, -187500.02, 0.000, 0.000, 0.000, 19:05:22.335, 1577145922335
149, -187500.02, 94742.88, 100150.32, 102562.30, 110994.94, 106595.60, -187500.02, -187500.02, 0.000, 0.000, 0.000, 19:05:22.335, 1577145922335
150, -187500.02, 94276.30, 99694.70, 102106.43, 110458.36, 105338.36, -187500.02, -187500.02, 0.000, 0.000, 0.000, 19:05:22.335, 1577145922335
151, -187500.02, 93880.97, 99315.16, 101727.28, 109952.09, 103408.87, -187500.02, -187500.02, 0.000, 0.000, 0.000, 19:05:22.335, 1577145922335
152, -187500.02, 94370.73, 99798.13, 102211.30, 110503.83, 104467.06, -187500.02, -187500.02, 0.000, 0.000, 0.000, 19:05:22.335, 1577145922335
153, -187500.02, 94778.45, 100183.45, 102594.30, 111021.00, 106551.55, -187500.02, -187500.02, 0.000, 0.000, 0.000, 19:05:22.335, 1577145922335
154, -187500.02, 94371.01, 99784.30, 102194.88, 110564.30, 105665.92, -187500.02, -187500.02, 0.000, 0.000, 0.000, 19:05:22.335, 1577145922335
155, -187500.02, 93924.17, 99362.20, 101771.06, 110006.74, 103650.89, -187500.02, -187500.02, 0.176, 0.272, 0.986, 19:05:22.335, 1577145922335
156, -187500.02, 94247.22, 99685.31, 102092.84, 110347.67, 104030.67, -187500.02, -187500.02, 0.000, 0.000, 0.000, 19:05:22.335, 1577145922335
157, -187500.02, 94778.73, 100182.05, 102587.64, 111011.77, 106404.13, -187500.02, -187500.02, 0.000, 0.000, 0.000, 19:05:22.335, 1577145922335
158, -187500.02, 94470.85, 99871.21, 102277.47, 110676.96, 105958.58, -187500.02, -187500.02, 0.000, 0.000, 0.000, 19:05:22.335, 1577145922335
159, -187500.02, 93973.75, 99404.46, 101810.92, 110075.37, 103997.39, -187500.02, -187500.02, 0.000, 0.000, 0.000, 19:05:22.335, 1577145922335
160, -187500.02, 94129.70, 99571.77, 101975.13, 110211.62, 103670.78, -187500.02, -187500.02, 0.000, 0.000, 0.000, 19:05:22.336, 1577145922336
161, -187500.02, 94770.70, 100182.75, 102586.26, 110992.34, 106180.93, -187500.02, -187500.02, 0.000, 0.000, 0.000, 19:05:22.336, 1577145922336
162, -187500.02, 94570.16, 99975.39, 102376.33, 110785.57, 106221.74, -187500.02, -187500.02, 0.000, 0.000, 0.000, 19:05:22.336, 1577145922336
163, -187500.02, 94044.00, 99468.12, 101868.98, 110148.27, 104320.20, -187500.02, -187500.02, 0.000, 0.000, 0.000, 19:05:22.336, 1577145922336
164, -187500.02, 94037.20, 99488.08, 101887.12, 110096.15, 103395.39, -187500.02, -187500.02, 0.000, 0.000, 0.000, 19:05:22.336, 1577145922336
165, -187500.02, 94712.95, 100137.00, 102532.55, 110912.10, 105814.90, -187500.02, -187500.02, 0.178, 0.268, 0.986, 19:05:22.336, 1577145922336
166, -187500.02, 94656.46, 100067.20, 102463.39, 110884.27, 106446.67, -187500.02, -187500.02, 0.000, 0.000, 0.000, 19:05:22.336, 1577145922336
167, -187500.02, 94131.69, 99563.52, 101958.55, 110258.98, 104709.27, -187500.02, -187500.02, 0.000, 0.000, 0.000, 19:05:22.336, 1577145922336
168, -187500.02, 93961.57, 99415.10, 101807.97, 110018.66, 103295.48, -187500.02, -187500.02, 0.000, 0.000, 0.000, 19:05:22.336, 1577145922336
169, -187500.02, 94617.81, 100047.01, 102441.04, 110792.50, 105375.64, -187500.02, -187500.02, 0.000, 0.000, 0.000, 19:05:22.336, 1577145922336
170, -187500.02, 94717.44, 100131.41, 102524.45, 110961.39, 106569.59, -187500.02, -187500.02, 0.000, 0.000, 0.000, 19:05:22.336, 1577145922336
171, -187500.02, 94200.77, 99626.88, 102016.87, 110359.27, 105073.40, -187500.02, -187500.02, 0.000, 0.000, 0.000, 19:05:22.336, 1577145922336
172, -187500.02, 93905.80, 99358.41, 101750.41, 109962.64, 103303.45, -187500.02, -187500.02, 0.000, 0.000, 0.000, 19:05:22.336, 1577145922336
173, -187500.02, 94478.07, 99919.11, 102309.83, 110620.37, 104875.56, -187500.02, -187500.02, 0.000, 0.000, 0.000, 19:05:22.336, 1577145922336
174, -187500.02, 94763.30, 100173.30, 102566.66, 110991.34, 106604.36, -187500.02, -187500.02, 0.000, 0.000, 0.000, 19:05:22.336, 1577145922336
175, -187500.02, 94316.27, 99741.70, 102133.52, 110478.70, 105417.84, -187500.02, -187500.02, 0.176, 0.266, 0.988, 19:05:22.336, 1577145922336
176, -187500.02, 93928.13, 99377.62, 101767.31, 109969.55, 103444.88, -187500.02, -187500.02, 0.000, 0.000, 0.000, 19:05:22.336, 1577145922336
177, -187500.02, 94378.85, 99822.30, 102216.96, 110505.32, 104422.23, -187500.02, -187500.02, 0.000, 0.000, 0.000, 19:05:22.336, 1577145922336
178, -187500.02, 94794.26, 100204.81, 102605.48, 111045.34, 106601.92, -187500.02, -187500.02, 0.000, 0.000, 0.000, 19:05:22.336, 1577145922336
179, -187500.02, 94404.91, 99820.85, 102218.95, 110601.32, 105768.09, -187500.02, -187500.02, 0.000, 0.000, 0.000, 19:05:22.336, 1577145922336
180, -187500.02, 93944.85, 99385.76, 101783.67, 110015.69, 103720.67, -187500.02, -187500.02, 0.000, 0.000, 0.000, 19:05:22.337, 1577145922337
181, -187500.02, 94244.95, 99686.67, 102086.90, 110327.67, 103970.48, -187500.02, -187500.02, 0.000, 0.000, 0.000, 19:05:22.337, 1577145922337
182, -187500.02, 94807.96, 100215.18, 102618.46, 111023.41, 106410.80, -187500.02, -187500.02, 0.000, 0.000, 0.000, 19:05:22.337, 1577145922337
183, -187500.02, 94494.30, 99898.39, 102302.97, 110693.88, 106025.02, -187500.02, -187500.02, 0.000, 0.000, 0.000, 19:05:22.337, 1577145922337
184, -187500.02, 93981.93, 99411.19, 101815.39, 110069.80, 104031.90, -187500.02, -187500.02, 0.000, 0.000, 0.000, 19:05:22.337, 1577145922337
185, -187500.02, 94116.89, 99564.12, 101970.76, 110190.66, 103613.01, -187500.02, -187500.02, 0.176, 0.272, 0.986, 19:05:22.337, 1577145922337
186, -187500.02, 94756.84, 100177.34, 102584.49, 110974.66, 106116.49, -187500.02, -187500.02, 0.000, 0.000, 0.000, 19:05:22.337, 1577145922337
187, -187500.02, 94583.02, 99996.13, 102400.45, 110807.56, 106273.49, -187500.02, -187500.02, 0.000, 0.000, 0.000, 19:05:22.337, 1577145922337
188, -187500.02, 94058.87, 99491.12, 101895.66, 110179.08, 104427.55, -187500.02, -187500.02, 0.000, 0.000, 0.000, 19:05:22.337, 1577145922337
189, -187500.02, 94021.41, 99472.05, 101877.91, 110089.24, 103400.71, -187500.02, -187500.02, 0.000, 0.000, 0.000, 19:05:22.337, 1577145922337
190, -187500.02, 94699.89, 100124.77, 102533.22, 110908.62, 105766.51, -187500.02, -187500.02, 0.000, 0.000, 0.000, 19:05:22.337, 1577145922337
191, -187500.02, 94658.30, 100065.36, 102474.85, 110897.44, 106469.05, -187500.02, -187500.02, 0.000, 0.000, 0.000, 19:05:22.337, 1577145922337
192, -187500.02, 94131.53, 99550.62, 101960.74, 110268.20, 104784.66, -187500.02, -187500.02, 0.000, 0.000, 0.000, 19:05:22.337, 1577145922337
193, -187500.02, 93949.32, 99394.63, 101807.63, 109998.63, 103277.88, -187500.02, -187500.02, 0.000, 0.000, 0.000, 19:05:22.337, 1577145922337
194, -187500.02, 94596.36, 100017.73, 102432.97, 110771.84, 105305.97, -187500.02, -187500.02, 0.000, 0.000, 0.000, 19:05:22.337, 1577145922337
195, -187500.02, 94724.70, 100115.05, 102529.66, 110955.91, 106585.45, -187500.02, -187500.02, 0.176, 0.276, 0.986, 19:05:22.337, 1577145922337
196, -187500.02, 94223.95, 99634.48, 102049.50, 110380.71, 105144.28, -187500.02, -187500.02, 0.000, 0.000, 0.000, 19:05:22.337, 1577145922337
197, -187500.02, 93910.31, 99352.41, 101767.24, 109974.76, 103363.49, -187500.02, -187500.02, 0.000, 0.000, 0.000, 19:05:22.338, 1577145922338
198, -187500.02, 94480.51, 99907.69, 102322.88, 110626.31, 104824.70, -187500.02, -187500.02, 0.000, 0.000, 0.000, 19:05:22.338, 1577145922338
199, -187500.02, 94780.85, 100176.36, 102591.40, 111015.21, 106624.03, -187500.02, -187500.02, 0.000, 0.000, 0.000, 19:05:22.338, 1577145922338
200, -187500.02, 94319.17, 99724.02, 102137.14, 110492.02, 105491.78, -187500.02, -187500.02, 0.000, 0.000, 0.000, 19:05:22.338, 1577145922338
201, -187500.02, 93912.48, 99345.14, 101757.45, 109969.17, 103505.96, -187500.02, -187500.02, 0.000, 0.000, 0.000, 19:05:22.338, 1577145922338
202, -187500.02, 94353.93, 99783.28, 102197.34, 110459.81, 104304.99, -187500.02, -187500.02, 0.000, 0.000, 0.000, 19:05:22.338, 1577145922338
203, -187500.02, 94796.85, 100196.67, 102611.16, 111032.09, 106538.83, -187500.02, -187500.02, 0.000, 0.000, 0.000, 19:05:22.338, 1577145922338
204, -187500.02, 94410.03, 99812.78, 102227.31, 110606.15, 105808.69, -187500.02, -187500.02, 0.000, 0.000, 0.000, 19:05:22.338, 1577145922338
205, -187500.02, 93935.93, 99360.48, 101776.72, 110011.98, 103771.95, -187500.02, -187500.02, 0.178, 0.270, 0.986, 19:05:22.338, 1577145922338
206, -187500.02, 94209.42, 99646.82, 102064.72, 110309.86, 103894.08, -187500.02, -187500.02, 0.000, 0.000, 0.000, 19:05:22.338, 1577145922338
207, -187500.02, 94801.88, 100207.56, 102625.10, 111026.20, 106362.74, -187500.02, -187500.02, 0.000, 0.000, 0.000, 19:05:22.338, 1577145922338
208, -187500.02, 94515.42, 99911.06, 102328.49, 110720.39, 106082.29, -187500.02, -187500.02, 0.000, 0.000, 0.000, 19:05:22.338, 1577145922338
209, -187500.02, 93989.17, 99408.51, 101829.07, 110098.77, 104090.02, -187500.02, -187500.02, 0.000, 0.000, 0.000, 19:05:22.338, 1577145922338
210, -187500.02, 94084.66, 99520.05, 101941.30, 110168.98, 103549.82, -187500.02, -187500.02, 0.000, 0.000, 0.000, 19:05:22.338, 1577145922338
211, -187500.02, 94754.49, 100158.09, 102580.89, 110967.78, 106055.83, -187500.02, -187500.02, 0.000, 0.000, 0.000, 19:05:22.338, 1577145922338
212, -187500.02, 94598.57, 99987.91, 102409.45, 110820.13, 106329.75, -187500.02, -187500.02, 0.000, 0.000, 0.000, 19:05:22.338, 1577145922338
213, -187500.02, 94053.19, 99458.20, 101879.12, 110170.20, 104477.28, -187500.02, -187500.02, 0.000, 0.000, 0.000, 19:05:22.338, 1577145922338
214, -187500.02, 94000.80, 99426.97, 101851.06, 110061.62, 103357.59, -187500.02, -187500.02, 0.000, 0.000, 0.000, 19:05:22.338, 1577145922338
215, -187500.02, 94682.91, 100084.63, 102512.52, 110881.81, 105677.44, -187500.02, -187500.02, 0.184, 0.270, 0.984, 19:05:22.338, 1577145922338
216, -187500.02, 94665.85, 100049.80, 102474.92, 110903.18, 106471.05, -187500.02, -187500.02, 0.000, 0.000, 0.000, 19:05:22.338, 1577145922338
217, -187500.02, 94151.55, 99554.69, 101982.06, 110290.77, 104828.80, -187500.02, -187500.02, 0.000, 0.000, 0.000, 19:05:22.338, 1577145922338
218, -187500.02, 93939.23, 99363.67, 101794.38, 109992.87, 103275.13, -187500.02, -187500.02, 0.000, 0.000, 0.000, 19:05:22.338, 1577145922338
219, -187500.02, 94579.84, 99982.23, 102417.45, 110746.84, 105199.95, -187500.02, -187500.02, 0.000, 0.000, 0.000, 19:05:22.338, 1577145922338
220, -187500.02, 94743.99, 100117.51, 102554.45, 110975.65, 106591.95, -187500.02, -187500.02, 0.000, 0.000, 0.000, 19:05:22.338, 1577145922338
221, -187500.02, 94237.73, 99622.64, 102062.95, 110400.91, 105210.95, -187500.02, -187500.02, 0.000, 0.000, 0.000, 19:05:22.338, 1577145922338
222, -187500.02, 93904.62, 99317.72, 101762.21, 109969.73, 103361.15, -187500.02, -187500.02, 0.000, 0.000, 0.000, 19:05:22.338, 1577145922338
223, -187500.02, 94453.88, 99859.92, 102307.80, 110600.77, 104688.15, -187500.02, -187500.02, 0.000, 0.000, 0.000, 19:05:22.338, 1577145922338
224, -187500.02, 94781.30, 100154.99, 102603.02, 111012.48, 106564.44, -187500.02, -187500.02, 0.000, 0.000, 0.000, 19:05:22.338, 1577145922338
225, -187500.02, 94338.30, 99716.23, 102166.36, 110511.58, 105514.67, -187500.02, -187500.02, 0.180, 0.272, 0.984, 19:05:22.338, 1577145922338
226, -187500.02, 93900.59, 99307.70, 101756.83, 109967.30, 103528.72, -187500.02, -187500.02, 0.000, 0.000, 0.000, 19:05:22.338, 1577145922338
227, -187500.02, 94313.43, 99716.72, 102168.81, 110423.60, 104217.98, -187500.02, -187500.02, 0.000, 0.000, 0.000, 19:05:22.813, 1577145922813
228, -187500.02, 94809.55, 100189.55, 102644.37, 111066.62, 106525.86, -187500.02, -187500.02, 0.000, 0.000, 0.000, 19:05:22.813, 1577145922813
229, -187500.02, 94444.34, 99820.70, 102275.30, 110653.65, 105850.73, -187500.02, -187500.02, 0.000, 0.000, 0.000, 19:05:22.813, 1577145922813
230, -187500.02, 93951.95, 99351.06, 101808.82, 110044.98, 103837.35, -187500.02, -187500.02, 0.000, 0.000, 0.000, 19:05:22.813, 1577145922813
231, -187500.02, 94185.58, 99595.03, 102057.50, 110289.67, 103819.91, -187500.02, -187500.02, 0.000, 0.000, 0.000, 19:05:22.813, 1577145922813
232, -187500.02, 94779.13, 100156.87, 102617.50, 111021.47, 106309.01, -187500.02, -187500.02, 0.000, 0.000, 0.000, 19:05:22.813, 1577145922813
233, -187500.02, 94518.53, 99891.41, 102351.45, 110744.93, 106135.38, -187500.02, -187500.02, 0.000, 0.000, 0.000, 19:05:22.813, 1577145922813
234, -187500.02, 94006.12, 99403.93, 101863.69, 110115.58, 104168.87, -187500.02, -187500.02, 0.000, 0.000, 0.000, 19:05:22.814, 1577145922814
235, -187500.02, 94084.59, 99495.97, 101958.80, 110154.63, 103487.55, -187500.02, -187500.02, 0.182, 0.268, 0.990, 19:05:22.814, 1577145922814
236, -187500.02, 94742.54, 100118.60, 102581.43, 110949.90, 105989.35, -187500.02, -187500.02, 0.000, 0.000, 0.000, 19:05:22.814, 1577145922814
237, -187500.02, 94611.40, 99967.16, 102429.80, 110833.29, 106352.26, -187500.02, -187500.02, 0.000, 0.000, 0.000, 19:05:22.814, 1577145922814
238, -187500.02, 94075.34, 99457.50, 101923.08, 110205.49, 104537.12, -187500.02, -187500.02, 0.000, 0.000, 0.000, 19:05:22.814, 1577145922814
239, -187500.02, 93979.23, 99388.17, 101852.34, 110050.27, 103305.53, -187500.02, -187500.02, 0.000, 0.000, 0.000, 19:05:22.814, 1577145922814
240, -187500.02, 94656.23, 100043.05, 102503.22, 110850.41, 105552.94, -187500.02, -187500.02, 0.000, 0.000, 0.000, 19:05:22.814, 1577145922814
241, -187500.02, 94683.06, 100049.96, 102510.75, 110918.47, 106495.33, -187500.02, -187500.02, 0.000, 0.000, 0.000, 19:05:22.814, 1577145922814
242, -187500.02, 94168.88, 99549.57, 102011.52, 110317.39, 104915.87, -187500.02, -187500.02, 0.000, 0.000, 0.000, 19:05:22.814, 1577145922814
243, -187500.02, 93932.91, 99340.98, 101803.92, 109995.75, 103294.91, -187500.02, -187500.02, 0.000, 0.000, 0.000, 19:05:22.814, 1577145922814
244, -187500.02, 94552.55, 99940.44, 102405.72, 110713.87, 105097.18, -187500.02, -187500.02, 0.000, 0.000, 0.000, 19:05:22.814, 1577145922814
245, -187500.02, 94742.25, 100104.27, 102570.99, 110981.91, 106567.93, -187500.02, -187500.02, 0.182, 0.266, 0.988, 19:05:22.814, 1577145922814
246, -187500.02, 94251.45, 99621.23, 102084.64, 110413.66, 105228.97, -187500.02, -187500.02, 0.000, 0.000, 0.000, 19:05:22.814, 1577145922814
247, -187500.02, 93905.80, 99309.65, 101774.59, 109972.32, 103362.71, -187500.02, -187500.02, 0.000, 0.000, 0.000, 19:05:22.814, 1577145922814
248, -187500.02, 94435.29, 99836.19, 102302.10, 110587.29, 104612.30, -187500.02, -187500.02, 0.000, 0.000, 0.000, 19:05:22.814, 1577145922814
249, -187500.02, 94787.22, 100150.20, 102613.59, 111028.29, 106602.69, -187500.02, -187500.02, 0.000, 0.000, 0.000, 19:05:22.814, 1577145922814
250, -187500.02, 94359.36, 99730.82, 102195.01, 110544.77, 105610.16, -187500.02, -187500.02, 0.000, 0.000, 0.000, 19:05:22.814, 1577145922814
251, -187500.02, 93928.15, 99329.09, 101793.39, 109990.88, 103596.27, -187500.02, -187500.02, 0.000, 0.000, 0.000, 19:05:22.814, 1577145922814
252, -187500.02, 94299.08, 99699.23, 102163.30, 110401.43, 104142.05, -187500.02, -187500.02, 0.000, 0.000, 0.000, 19:05:22.814, 1577145922814
253, -187500.02, 94800.36, 100172.05, 102637.06, 111049.56, 106490.62, -187500.02, -187500.02, 0.000, 0.000, 0.000, 19:05:22.814, 1577145922814
254, -187500.02, 94447.54, 99815.29, 102280.38, 110654.27, 105906.12, -187500.02, -187500.02, 0.000, 0.000, 0.000, 19:05:22.814, 1577145922814
255, -187500.02, 93963.29, 99356.83, 101823.50, 110054.91, 103891.48, -187500.02, -187500.02, 0.178, 0.268, 0.982, 19:05:22.814, 1577145922814
0, -187500.02, 94168.88, 99576.59, 102043.89, 110260.57, 103743.59, -187500.02, -187500.02, 0.000, 0.000, 0.000, 19:05:22.814, 1577145922814
1, -187500.02, 94787.77, 100155.34, 102622.69, 111010.47, 106239.36, -187500.02, -187500.02, 0.000, 0.000, 0.000, 19:05:22.814, 1577145922814
2, -187500.02, 94533.03, 99890.26, 102359.45, 110751.62, 106161.13, -187500.02, -187500.02, 0.000, 0.000, 0.000, 19:05:22.814, 1577145922814
3, -187500.02, 94005.16, 99389.84, 101854.86, 110116.47, 104224.93, -187500.02, -187500.02, 0.000, 0.000, 0.000, 19:05:22.814, 1577145922814
4, -187500.02, 94063.11, 99467.92, 101932.47, 110119.76, 103454.33, -187500.02, -187500.02, 0.000, 0.000, 0.000, 19:05:22.814, 1577145922814
5, -187500.02, 94737.15, 100107.45, 102574.90, 110932.51, 105895.07, -187500.02, -187500.02, 0.000, 0.000, 0.000, 19:05:22.814, 1577145922814
6, -187500.02, 94634.84, 99995.53, 102465.06, 110858.86, 106354.24, -187500.02, -187500.02, 0.000, 0.000, 0.000, 19:05:22.814, 1577145922814
7, -187500.02, 94103.57, 99484.39, 101953.01, 110243.31, 104600.21, -187500.02, -187500.02, 0.000, 0.000, 0.000, 19:05:22.814, 1577145922814
8, -187500.02, 93975.78, 99369.39, 101836.58, 110038.98, 103320.29, -187500.02, -187500.02, 0.000, 0.000, 0.000, 19:05:22.814, 1577145922814
9, -187500.02, 94656.98, 100034.91, 102505.12, 110837.29, 105475.94, -187500.02, -187500.02, 0.176, 0.272, 0.992, 19:05:22.814, 1577145922814
10, -187500.02, 94721.55, 100087.30, 102554.74, 110953.38, 106480.51, -187500.02, -187500.02, 0.000, 0.000, 0.000, 19:05:22.814, 1577145922814
11, -187500.02, 94202.14, 99574.88, 102041.70, 110350.70, 104979.30, -187500.02, -187500.02, 0.000, 0.000, 0.000, 19:05:22.814, 1577145922814
12, -187500.02, 93922.38, 99315.30, 101783.47, 109976.21, 103311.97, -187500.02, -187500.02, 0.000, 0.000, 0.000, 19:05:22.815, 1577145922815
13, -187500.02, 94537.02, 99923.58, 102393.09, 110702.38, 104999.84, -187500.02, -187500.02, 0.000, 0.000, 0.000, 19:05:22.815, 1577145922815
14, -187500.02, 94767.73, 100121.75, 102591.35, 111007.34, 106609.26, -187500.02, -187500.02, 0.000, 0.000, 0.000, 19:05:22.815, 1577145922815
15, -187500.02, 94290.54, 99654.29, 102122.75, 110447.43, 105343.86, -187500.02, -187500.02, 0.000, 0.000, 0.000, 19:05:22.815, 1577145922815
16, -187500.02, 93927.77, 99321.09, 101791.23, 109989.45, 103416.66, -187500.02, -187500.02, 0.000, 0.000, 0.000, 19:05:22.815, 1577145922815
17, -187500.02, 94425.74, 99820.45, 102289.49, 110560.62, 104507.37, -187500.02, -187500.02, 0.000, 0.000, 0.000, 19:05:22.815, 1577145922815
18, -187500.02, 94817.23, 100177.16, 102645.55, 111061.27, 106587.87, -187500.02, -187500.02, 0.000, 0.000, 0.000, 19:05:22.815, 1577145922815
19, -187500.02, 94381.96, 99745.64, 102213.09, 110575.26, 105674.59, -187500.02, -187500.02, 0.172, 0.272, 0.986, 19:05:22.815, 1577145922815
20, -187500.02, 93934.45, 99325.31, 101793.95, 110009.23, 103650.58, -187500.02, -187500.02, 0.000, 0.000, 0.000, 19:05:22.815, 1577145922815
21, -187500.02, 94278.11, 99674.49, 102143.45, 110396.23, 104076.38, -187500.02, -187500.02, 0.000, 0.000, 0.000, 19:05:22.815, 1577145922815
22, -187500.02, 94817.70, 100182.73, 102651.57, 111057.43, 106441.91, -187500.02, -187500.02, 0.000, 0.000, 0.000, 19:05:22.815, 1577145922815
23, -187500.02, 94472.20, 99831.65, 102300.65, 110673.52, 105935.77, -187500.02, -187500.02, 0.000, 0.000, 0.000, 19:05:22.815, 1577145922815
24, -187500.02, 93970.48, 99354.57, 101824.62, 110064.45, 103946.78, -187500.02, -187500.02, 0.000, 0.000, 0.000, 19:05:22.815, 1577145922815
25, -187500.02, 94154.17, 99553.23, 102024.22, 110251.00, 103688.38, -187500.02, -187500.02, 0.000, 0.000, 0.000, 19:05:22.815, 1577145922815
26, -187500.02, 94791.71, 100163.20, 102635.05, 111026.34, 106188.30, -187500.02, -187500.02, 0.000, 0.000, 0.000, 19:05:22.815, 1577145922815
27, -187500.02, 94579.73, 99945.46, 102415.53, 110797.52, 106188.98, -187500.02, -187500.02, 0.000, 0.000, 0.000, 19:05:22.815, 1577145922815
28, -187500.02, 94051.02, 99432.13, 101901.91, 110148.81, 104270.64, -187500.02, -187500.02, 0.000, 0.000, 0.000, 19:05:22.815, 1577145922815
29, -187500.02, 94047.11, 99445.12, 101914.63, 110122.48, 103415.66, -187500.02, -187500.02, 0.000, 0.000, 0.000, 19:05:22.815, 1577145922815
30, -187500.02, 94737.30, 100107.83, 102580.66, 110949.98, 105860.80, -187500.02, -187500.02, 0.176, 0.270, 0.988, 19:05:22.815, 1577145922815
31, -187500.02, 94651.27, 100001.99, 102473.87, 110884.59, 106429.98, -187500.02, -187500.02, 0.000, 0.000, 0.000, 19:05:22.815, 1577145922815
32, -187500.02, 94113.78, 99485.78, 101953.81, 110250.87, 104696.38, -187500.02, -187500.02, 0.000, 0.000, 0.000, 19:05:22.815, 1577145922815
33, -187500.02, 93959.45, 99357.91, 101827.19, 110010.74, 103283.18, -187500.02, -187500.02, 0.000, 0.000, 0.000, 19:05:22.815, 1577145922815
34, -187500.02, 94632.95, 100010.80, 102482.09, 110808.50, 105381.81, -187500.02, -187500.02, 0.000, 0.000, 0.000, 19:05:22.815, 1577145922815
35, -187500.02, 94731.30, 100086.28, 102557.49, 110966.73, 106546.42, -187500.02, -187500.02, 0.000, 0.000, 0.000, 19:05:22.815, 1577145922815
36, -187500.02, 94221.20, 99593.09, 102062.33, 110377.94, 105047.59, -187500.02, -187500.02, 0.000, 0.000, 0.000, 19:05:22.815, 1577145922815
37, -187500.02, 93921.91, 99316.80, 101785.05, 109975.18, 103296.15, -187500.02, -187500.02, 0.000, 0.000, 0.000, 19:05:22.815, 1577145922815
38, -187500.02, 94512.25, 99895.71, 102367.01, 110661.77, 104898.81, -187500.02, -187500.02, 0.000, 0.000, 0.000, 19:05:22.815, 1577145922815
39, -187500.02, 94779.98, 100134.00, 102604.54, 111014.27, 106600.07, -187500.02, -187500.02, 0.000, 0.000, 0.000, 19:05:22.815, 1577145922815
40, -187500.02, 94308.76, 99674.72, 102144.54, 110482.19, 105394.55, -187500.02, -187500.02, 0.176, 0.270, 0.988, 19:05:22.815, 1577145922815
41, -187500.02, 93919.70, 99312.33, 101781.10, 109976.95, 103445.30, -187500.02, -187500.02, 0.000, 0.000, 0.000, 19:05:22.815, 1577145922815
42, -187500.02, 94388.48, 99778.23, 102248.19, 110517.05, 104423.73, -187500.02, -187500.02, 0.000, 0.000, 0.000, 19:05:22.815, 1577145922815
43, -187500.02, 94806.46, 100168.67, 102639.97, 111058.39, 106563.01, -187500.02, -187500.02, 0.000, 0.000, 0.000, 19:05:22.815, 1577145922815
44, -187500.02, 94404.96, 99769.20, 102239.42, 110601.81, 105720.23, -187500.02, -187500.02, 0.000, 0.000, 0.000, 19:05:22.815, 1577145922815
45, -187500.02, 93928.20, 99309.02, 101777.80, 110001.49, 103670.70, -187500.02, -187500.02, 0.000, 0.000, 0.000, 19:05:22.815, 1577145922815
46, -187500.02, 94238.86, 99627.66, 102097.24, 110337.59, 103942.25, -187500.02, -187500.02, 0.000, 0.000, 0.000, 19:05:22.815, 1577145922815
47, -187500.02, 94799.65, 100160.11, 102631.00, 111040.09, 106357.22, -187500.02, -187500.02, 0.000, 0.000, 0.000, 19:05:22.816, 1577145922816
48, -187500.02, 94496.55, 99859.86, 102325.26, 110712.05, 106001.76, -187500.02, -187500.02, 0.000, 0.000, 0.000, 19:05:22.816, 1577145922816
49, -187500.02, 93994.20, 99378.89, 101843.84, 110084.41, 104004.59, -187500.02, -187500.02, 0.000, 0.000, 0.000, 19:05:22.816, 1577145922816
50, -187500.02, 94131.77, 99525.52, 101990.85, 110213.05, 103605.79, -187500.02, -187500.02, 0.178, 0.272, 0.986, 19:05:22.816, 1577145922816
51, -187500.02, 94786.59, 100149.31, 102615.78, 111008.35, 106152.12, -187500.02, -187500.02, 0.000, 0.000, 0.000, 19:05:22.816, 1577145922816
52, -187500.02, 94591.55, 99946.90, 102410.08, 110827.32, 106276.46, -187500.02, -187500.02, 0.000, 0.000, 0.000, 19:05:22.816, 1577145922816
53, -187500.02, 94059.52, 99443.98, 101906.07, 110188.40, 104383.16, -187500.02, -187500.02, 0.000, 0.000, 0.000, 19:05:22.816, 1577145922816
54, -187500.02, 94035.53, 99441.74, 101905.35, 110111.30, 103365.26, -187500.02, -187500.02, 0.000, 0.000, 0.000, 19:05:22.816, 1577145922816
55, -187500.02, 94697.25, 100074.10, 102535.56, 110906.65, 105725.52, -187500.02, -187500.02, 0.000, 0.000, 0.000, 19:05:22.816, 1577145922816
56, -187500.02, 94650.72, 100005.14, 102464.55, 110883.55, 106401.92, -187500.02, -187500.02, 0.000, 0.000, 0.000, 19:05:22.816, 1577145922816
57, -187500.02, 94127.46, 99498.74, 101958.24, 110270.12, 104734.02, -187500.02, -187500.02, 0.000, 0.000, 0.000, 19:05:22.816, 1577145922816
58, -187500.02, 93956.67, 99354.02, 101814.49, 110022.79, 103273.95, -187500.02, -187500.02, 0.000, 0.000, 0.000, 19:05:22.816, 1577145922816
59, -187500.02, 94620.70, 100000.85, 102462.07, 110811.72, 105292.45, -187500.02, -187500.02, 0.000, 0.000, 0.000, 19:05:22.816, 1577145922816
60, -187500.02, 94745.76, 100106.20, 102564.95, 111001.40, 106574.81, -187500.02, -187500.02, 0.170, 0.274, 0.986, 19:05:22.816, 1577145922816
61, -187500.02, 94245.99, 99619.11, 102078.02, 110420.52, 105141.15, -187500.02, -187500.02, 0.000, 0.000, 0.000, 19:05:22.816, 1577145922816
62, -187500.02, 93934.41, 99330.66, 101789.04, 110004.53, 103331.80, -187500.02, -187500.02, 0.000, 0.000, 0.000, 19:05:22.816, 1577145922816
63, -187500.02, 94510.68, 99895.33, 102356.63, 110668.27, 104807.13, -187500.02, -187500.02, 0.000, 0.000, 0.000, 19:05:22.816, 1577145922816
64, -187500.02, 94786.23, 100142.20, 102605.30, 111049.74, 106588.65, -187500.02, -187500.02, 0.000, 0.000, 0.000, 19:05:22.816, 1577145922816
65, -187500.02, 94324.20, 99687.44, 102144.67, 110512.63, 105444.91, -187500.02, -187500.02, 0.000, 0.000, 0.000, 19:05:22.816, 1577145922816
66, -187500.02, 93920.66, 99309.18, 101767.18, 109996.82, 103472.68, -187500.02, -187500.02, 0.000, 0.000, 0.000, 19:05:22.816, 1577145922816
67, -187500.02, 94358.09, 99742.87, 102203.77, 110500.63, 104330.48, -187500.02, -187500.02, 0.000, 0.000, 0.000, 19:05:22.816, 1577145922816
68, -187500.02, 94805.01, 100161.92, 102622.42, 111069.50, 106533.62, -187500.02, -187500.02, 0.000, 0.000, 0.000, 19:05:22.816, 1577145922816
69, -187500.02, 94414.70, 99777.85, 102237.23, 110636.03, 105765.32, -187500.02, -187500.02, 0.000, 0.000, 0.000, 19:05:22.816, 1577145922816
70, -187500.02, 93939.30, 99327.53, 101784.77, 110034.05, 103707.87, -187500.02, -187500.02, 0.172, 0.268, 0.986, 19:05:22.816, 1577145922816
71, -187500.02, 94221.95, 99612.47, 102070.65, 110327.58, 103854.90, -187500.02, -187500.02, 0.000, 0.000, 0.000, 19:05:22.816, 1577145922816
72, -187500.02, 94773.98, 100129.48, 102589.12, 111023.30, 106333.70, -187500.02, -187500.02, 0.000, 0.000, 0.000, 19:05:22.816, 1577145922816
73, -187500.02, 94484.69, 99835.54, 102294.63, 110716.41, 106027.46, -187500.02, -187500.02, 0.000, 0.000, 0.000, 19:05:22.816, 1577145922816
74, -187500.02, 93984.32, 99361.84, 101819.21, 110112.65, 104075.02, -187500.02, -187500.02, 0.000, 0.000, 0.000, 19:05:22.816, 1577145922816
75, -187500.02, 94108.55, 99505.18, 101962.69, 110216.36, 103568.66, -187500.02, -187500.02, 0.000, 0.000, 0.000, 19:05:22.816, 1577145922816
76, -187500.02, 94784.23, 100151.39, 102608.70, 111022.25, 106059.49, -187500.02, -187500.02, 0.000, 0.000, 0.000, 19:05:22.816, 1577145922816
77, -187500.02, 94631.90, 99989.03, 102442.98, 110874.39, 106306.16, -187500.02, -187500.02, 0.000, 0.000, 0.000, 19:05:22.816, 1577145922816
78, -187500.02, 94099.32, 99476.46, 101927.73, 110242.11, 104432.63, -187500.02, -187500.02, 0.000, 0.000, 0.000, 19:05:22.816, 1577145922816
79, -187500.02, 94031.62, 99435.29, 101882.96, 110121.85, 103351.76, -187500.02, -187500.02, 0.000, 0.000, 0.000, 19:05:22.816, 1577145922816
80, -187500.02, 94697.19, 100069.61, 102513.99, 110908.59, 105692.09, -187500.02, -187500.02, 0.170, 0.268, 0.988, 19:05:22.816, 1577145922816
81, -187500.02, 94690.05, 100041.91, 102483.20, 110929.42, 106461.31, -187500.02, -187500.02, 0.000, 0.000, 0.000, 19:05:22.816, 1577145922816
82, -187500.02, 94163.38, 99536.31, 101975.77, 110317.27, 104792.26, -187500.02, -187500.02, 0.000, 0.000, 0.000, 19:05:22.817, 1577145922817
83, -187500.02, 93948.20, 99350.46, 101788.30, 110027.42, 103246.93, -187500.02, -187500.02, 0.000, 0.000, 0.000, 19:05:22.817, 1577145922817
84, -187500.02, 94597.12, 99988.36, 102423.06, 110802.16, 105239.05, -187500.02, -187500.02, 0.000, 0.000, 0.000, 19:05:22.817, 1577145922817
85, -187500.02, 94762.19, 100126.78, 102559.55, 111018.95, 106601.05, -187500.02, -187500.02, 0.000, 0.000, 0.000, 19:05:22.817, 1577145922817
86, -187500.02, 94256.81, 99628.56, 102060.38, 110432.41, 105188.34, -187500.02, -187500.02, 0.000, 0.000, 0.000, 19:05:22.817, 1577145922817
87, -187500.02, 93913.94, 99316.53, 101747.33, 109991.43, 103348.38, -187500.02, -187500.02, 0.000, 0.000, 0.000, 19:05:22.817, 1577145922817
88, -187500.02, 94464.33, 99857.40, 102289.02, 110629.11, 104698.56, -187500.02, -187500.02, 0.000, 0.000, 0.000, 19:05:22.817, 1577145922817
89, -187500.02, 94789.70, 100152.77, 102584.58, 111057.01, 106602.23, -187500.02, -187500.02, 0.000, 0.000, 0.000, 19:05:22.817, 1577145922817
90, -187500.02, 94347.65, 99713.95, 102144.70, 110543.27, 105534.38, -187500.02, -187500.02, 0.172, 0.266, 0.988, 19:05:22.817, 1577145922817
91, -187500.02, 93919.52, 99317.09, 101749.54, 110013.78, 103543.38, -187500.02, -187500.02, 0.000, 0.000, 0.000, 19:05:23.293, 1577145923293
92, -187500.02, 94328.45, 99731.20, 102162.76, 110474.86, 104231.75, -187500.02, -187500.02, 0.000, 0.000, 0.000, 19:05:23.293, 1577145923293
93, -187500.02, 94808.32, 100179.20, 102608.23, 111068.67, 106495.24, -187500.02, -187500.02, 0.000, 0.000, 0.000, 19:05:23.293, 1577145923293
94, -187500.02, 94441.86, 99817.70, 102241.77, 110667.13, 105836.09, -187500.02, -187500.02, 0.000, 0.000, 0.000, 19:05:23.293, 1577145923293
95, -187500.02, 93958.69, 99365.26, 101782.55, 110073.11, 103803.62, -187500.02, -187500.02, 0.000, 0.000, 0.000, 19:05:23.293, 1577145923293
96, -187500.02, 94205.98, 99622.46, 102033.43, 110320.90, 103810.15, -187500.02, -187500.02, 0.000, 0.000, 0.000, 19:05:23.293, 1577145923293
97, -187500.02, 94805.37, 100197.68, 102605.30, 111063.02, 106286.81, -187500.02, -187500.02, 0.000, 0.000, 0.000, 19:05:23.293, 1577145923293
98, -187500.02, 94543.59, 99936.28, 102339.25, 110790.27, 106083.32, -187500.02, -187500.02, 0.000, 0.000, 0.000, 19:05:23.293, 1577145923293
99, -187500.02, 94020.89, 99434.77, 101833.16, 110153.22, 104145.80, -187500.02, -187500.02, 0.000, 0.000, 0.000, 19:05:23.293, 1577145923293
100, -187500.02, 94090.16, 99514.91, 101911.61, 110177.09, 103507.37, -187500.02, -187500.02, 0.172, 0.272, 0.992, 19:05:23.293, 1577145923293
101, -187500.02, 94755.21, 100153.00, 102550.47, 110995.56, 105993.63, -187500.02, -187500.02, 0.000, 0.000, 0.000, 19:05:23.293, 1577145923293
102, -187500.02, 94610.91, 99997.99, 102393.02, 110871.22, 106340.12, -187500.02, -187500.02, 0.000, 0.000, 0.000, 19:05:23.293, 1577145923293
103, -187500.02, 94082.71, 99484.99, 101880.84, 110234.59, 104502.34, -187500.02, -187500.02, 0.000, 0.000, 0.000, 19:05:23.293, 1577145923293
104, -187500.02, 93979.38, 99405.87, 101800.15, 110071.70, 103308.89, -187500.02, -187500.02, 0.000, 0.000, 0.000, 19:05:23.293, 1577145923293
105, -187500.02, 94666.66, 100075.48, 102468.91, 110877.23, 105561.95, -187500.02, -187500.02, 0.000, 0.000, 0.000, 19:05:23.293, 1577145923293
106, -187500.02, 94701.63, 100092.36, 102487.48, 110977.86, 106501.48, -187500.02, -187500.02, 0.000, 0.000, 0.000, 19:05:23.293, 1577145923293
107, -187500.02, 94170.55, 99575.86, 101965.59, 110359.21, 104923.24, -187500.02, -187500.02, 0.000, 0.000, 0.000, 19:05:23.293, 1577145923293
108, -187500.02, 93941.30, 99367.54, 101760.23, 110017.48, 103288.48, -187500.02, -187500.02, 0.000, 0.000, 0.000, 19:05:23.293, 1577145923293
109, -187500.02, 94560.64, 99966.63, 102358.98, 110761.18, 105094.32, -187500.02, -187500.02, 0.000, 0.000, 0.000, 19:05:23.293, 1577145923293
110, -187500.02, 94760.64, 100154.07, 102540.88, 111035.55, 106579.04, -187500.02, -187500.02, 0.178, 0.274, 0.992, 19:05:23.293, 1577145923293
111, -187500.02, 94281.42, 99687.88, 102074.78, 110474.34, 105254.77, -187500.02, -187500.02, 0.000, 0.000, 0.000, 19:05:23.293, 1577145923293
112, -187500.02, 93915.61, 99349.99, 101737.11, 110021.41, 103367.05, -187500.02, -187500.02, 0.000, 0.000, 0.000, 19:05:23.293, 1577145923293
113, -187500.02, 94432.66, 99855.16, 102239.54, 110604.97, 104600.75, -187500.02, -187500.02, 0.000, 0.000, 0.000, 19:05:23.294, 1577145923294
114, -187500.02, 94788.72, 100178.91, 102563.66, 111053.14, 106571.28, -187500.02, -187500.02, 0.000, 0.000, 0.000, 19:05:23.294, 1577145923294
115, -187500.02, 94360.77, 99762.31, 102144.63, 110569.38, 105576.20, -187500.02, -187500.02, 0.000, 0.000, 0.000, 19:05:23.294, 1577145923294
116, -187500.02, 93913.82, 99344.59, 101725.91, 110019.93, 103573.04, -187500.02, -187500.02, 0.000, 0.000, 0.000, 19:05:23.294, 1577145923294
117, -187500.02, 94288.20, 99723.80, 102103.01, 110434.96, 104110.71, -187500.02, -187500.02, 0.000, 0.000, 0.000, 19:05:23.294, 1577145923294
118, -187500.02, 94807.73, 100213.35, 102588.42, 111073.44, 106446.63, -187500.02, -187500.02, 0.000, 0.000, 0.000, 19:05:23.294, 1577145923294
119, -187500.02, 94460.41, 99863.68, 102235.96, 110690.64, 105887.48, -187500.02, -187500.02, 0.000, 0.000, 0.000, 19:05:23.294, 1577145923294
120, -187500.02, 93955.47, 99383.59, 101756.02, 110080.28, 103865.00, -187500.02, -187500.02, 0.176, 0.274, 0.988, 19:05:23.294, 1577145923294
121, -187500.02, 94163.47, 99605.34, 101976.27, 110292.91, 103730.22, -187500.02, -187500.02, 0.000, 0.000, 0.000, 19:05:23.294, 1577145923294
122, -187500.02, 94779.69, 100195.91, 102560.41, 111039.98, 106223.89, -187500.02, -187500.02, 0.000, 0.000, 0.000, 19:05:23.294, 1577145923294
123, -187500.02, 94560.98, 99972.51, 102337.10, 110813.06, 106159.05, -187500.02, -187500.02, 0.000, 0.000, 0.000, 19:05:23.294, 1577145923294
124, -187500.02, 94027.66, 99454.87, 101819.70, 110168.33, 104236.53, -187500.02, -187500.02, 0.000, 0.000, 0.000, 19:05:23.294, 1577145923294
125, -187500.02, 94054.08, 99501.67, 101869.01, 110173.45, 103476.46, -187500.02, -187500.02, 0.000, 0.000, 0.000, 19:05:23.294, 1577145923294
126, -187500.02, 94747.21, 100172.42, 102537.69, 111000.19, 105908.46, -187500.02, -187500.02, 0.000, 0.000, 0.000, 19:05:23.294, 1577145923294
127, -187500.02, 94649.87, 100061.96, 102425.52, 110924.40, 106373.55, -187500.02, -187500.02, 0.000, 0.000, 0.000, 19:05:23.294, 1577145923294
128, -187500.02, 94095.23, 99526.86, 101890.38, 110268.66, 104602.67, -187500.02, -187500.02, 0.000, 0.000, 0.000, 19:05:23.294, 1577145923294
129, -187500.02, 93967.11, 99422.21, 101781.59, 110062.16, 103297.87, -187500.02, -187500.02, 0.000, 0.000, 0.000, 19:05:23.294, 1577145923294
130, -187500.02, 94645.80, 100077.61, 102435.63, 110874.84, 105473.72, -187500.02, -187500.02, 0.174, 0.272, 0.988, 19:05:23.294, 1577145923294
131, -187500.02, 94694.50, 100108.43, 102467.41, 110985.84, 106498.77, -187500.02, -187500.02, 0.000, 0.000, 0.000, 19:05:23.294, 1577145923294
132, -187500.02, 94169.17, 99597.38, 101955.09, 110374.01, 104951.30, -187500.02, -187500.02, 0.000, 0.000, 0.000, 19:05:23.294, 1577145923294
133, -187500.02, 93900.81, 99355.71, 101711.45, 110003.32, 103265.30, -187500.02, -187500.02, 0.000, 0.000, 0.000, 19:05:23.294, 1577145923294
134, -187500.02, 94528.54, 99961.16, 102317.66, 110716.88, 104965.30, -187500.02, -187500.02, 0.000, 0.000, 0.000, 19:05:23.294, 1577145923294
135, -187500.02, 94760.95, 100176.63, 102534.00, 111051.69, 106585.16, -187500.02, -187500.02, 0.000, 0.000, 0.000, 19:05:23.294, 1577145923294
136, -187500.02, 94281.60, 99711.64, 102067.25, 110508.74, 105335.68, -187500.02, -187500.02, 0.000, 0.000, 0.000, 19:05:23.294, 1577145923294
137, -187500.02, 93911.70, 99372.55, 101727.95, 110029.50, 103414.57, -187500.02, -187500.02, 0.000, 0.000, 0.000, 19:05:23.294, 1577145923294
138, -187500.02, 94406.12, 99863.14, 102217.83, 110597.73, 104502.98, -187500.02, -187500.02, 0.000, 0.000, 0.000, 19:05:23.294, 1577145923294
139, -187500.02, 94795.78, 100220.05, 102574.56, 111090.24, 106553.24, -187500.02, -187500.02, 0.000, 0.000, 0.000, 19:05:23.294, 1577145923294
140, -187500.02, 94360.08, 99783.01, 102139.29, 110609.28, 105642.34, -187500.02, -187500.02, 0.176, 0.270, 0.988, 19:05:23.294, 1577145923294
141, -187500.02, 93899.52, 99353.14, 101708.75, 110032.76, 103618.50, -187500.02, -187500.02, 0.000, 0.000, 0.000, 19:05:23.294, 1577145923294
142, -187500.02, 94270.13, 99738.80, 102092.69, 110438.11, 104054.84, -187500.02, -187500.02, 0.000, 0.000, 0.000, 19:05:23.294, 1577145923294
143, -187500.02, 94811.42, 100241.29, 102597.41, 111100.41, 106429.30, -187500.02, -187500.02, 0.000, 0.000, 0.000, 19:05:23.294, 1577145923294
144, -187500.02, 94468.66, 99895.77, 102250.35, 110724.37, 105945.08, -187500.02, -187500.02, 0.000, 0.000, 0.000, 19:05:23.294, 1577145923294
145, -187500.02, 93963.00, 99413.18, 101767.31, 110110.10, 103935.92, -187500.02, -187500.02, 0.000, 0.000, 0.000, 19:05:23.295, 1577145923295
146, -187500.02, 94147.87, 99606.59, 101962.27, 110293.47, 103684.98, -187500.02, -187500.02, 0.000, 0.000, 0.000, 19:05:23.295, 1577145923295
147, -187500.02, 94769.38, 100198.35, 102554.80, 111052.94, 106192.69, -187500.02, -187500.02, 0.000, 0.000, 0.000, 19:05:23.295, 1577145923295
148, -187500.02, 94547.38, 99967.52, 102323.55, 110827.26, 106187.45, -187500.02, -187500.02, 0.000, 0.000, 0.000, 19:05:23.295, 1577145923295
149, -187500.02, 94019.13, 99459.42, 101814.45, 110191.91, 104302.84, -187500.02, -187500.02, 0.000, 0.000, 0.000, 19:05:23.295, 1577145923295
150, -187500.02, 94050.17, 99518.23, 101874.42, 110179.92, 103430.21, -187500.02, -187500.02, 0.178, 0.264, 0.984, 19:05:23.295, 1577145923295
151, -187500.02, 94726.45, 100161.80, 102517.34, 110990.06, 105825.38, -187500.02, -187500.02, 0.000, 0.000, 0.000, 19:05:23.295, 1577145923295
152, -187500.02, 94639.49, 100053.38, 102409.19, 110923.39, 106391.35, -187500.02, -187500.02, 0.000, 0.000, 0.000, 19:05:23.295, 1577145923295
153, -187500.02, 94107.01, 99542.28, 101898.60, 110298.48, 104644.63, -187500.02, -187500.02, 0.000, 0.000, 0.000, 19:05:23.295, 1577145923295
154, -187500.02, 93964.27, 99430.19, 101783.23, 110075.74, 103275.27, -187500.02, -187500.02, 0.000, 0.000, 0.000, 19:05:23.295, 1577145923295
155, -187500.02, 94641.13, 100084.41, 102435.98, 110877.37, 105381.25, -187500.02, -187500.02, 0.000, 0.000, 0.000, 19:05:23.295, 1577145923295
156, -187500.02, 94730.35, 100143.55, 102493.34, 111020.53, 106542.83, -187500.02, -187500.02, 0.000, 0.000, 0.000, 19:05:23.295, 1577145923295
157, -187500.02, 94192.77, 99622.88, 101967.85, 110398.81, 105045.20, -187500.02, -187500.02, 0.000, 0.000, 0.000, 19:05:23.295, 1577145923295
158, -187500.02, 93910.56, 99374.35, 101719.01, 110020.69, 103299.27, -187500.02, -187500.02, 0.000, 0.000, 0.000, 19:05:23.295, 1577145923295
159, -187500.02, 94513.09, 99965.65, 102309.92, 110730.49, 104896.35, -187500.02, -187500.02, 0.000, 0.000, 0.000, 19:05:23.295, 1577145923295
160, -187500.02, 94781.98, 100208.92, 102552.66, 111078.58, 106579.20, -187500.02, -187500.02, 0.182, 0.262, 0.984, 19:05:23.295, 1577145923295
161, -187500.02, 94315.28, 99747.47, 102090.27, 110542.20, 105380.18, -187500.02, -187500.02, 0.000, 0.000, 0.000, 19:05:23.295, 1577145923295
162, -187500.02, 93911.95, 99369.88, 101709.35, 110040.56, 103459.45, -187500.02, -187500.02, 0.000, 0.000, 0.000, 19:05:23.295, 1577145923295
163, -187500.02, 94382.54, 99839.80, 102174.63, 110555.37, 104396.88, -187500.02, -187500.02, 0.000, 0.000, 0.000, 19:05:23.295, 1577145923295
164, -187500.02, 94809.91, 100233.89, 102571.37, 111090.65, 106510.88, -187500.02, -187500.02, 0.000, 0.000, 0.000, 19:05:23.295, 1577145923295
165, -187500.02, 94386.54, 99814.53, 102154.11, 110641.20, 105683.38, -187500.02, -187500.02, 0.000, 0.000, 0.000, 19:05:23.295, 1577145923295
166, -187500.02, 93918.65, 99378.38, 101713.45, 110061.06, 103691.70, -187500.02, -187500.02, 0.000, 0.000, 0.000, 19:05:23.295, 1577145923295
167, -187500.02, 94244.85, 99706.52, 102040.80, 110401.03, 103975.91, -187500.02, -187500.02, 0.000, 0.000, 0.000, 19:05:23.295, 1577145923295
168, -187500.02, 94800.79, 100237.09, 102573.11, 111089.98, 106365.51, -187500.02, -187500.02, 0.000, 0.000, 0.000, 19:05:23.295, 1577145923295
169, -187500.02, 94499.17, 99934.00, 102269.09, 110772.85, 105989.27, -187500.02, -187500.02, 0.000, 0.000, 0.000, 19:05:23.295, 1577145923295
170, -187500.02, 93990.06, 99448.23, 101782.20, 110153.15, 104007.89, -187500.02, -187500.02, 0.000, 0.000, 0.000, 19:05:23.295, 1577145923295
171, -187500.02, 94137.34, 99607.06, 101940.36, 110276.40, 103607.09, -187500.02, -187500.02, 0.176, 0.264, 0.980, 19:05:23.295, 1577145923295
172, -187500.02, 94788.05, 100228.73, 102562.25, 111064.83, 106112.71, -187500.02, -187500.02, 0.000, 0.000, 0.000, 19:05:23.295, 1577145923295
173, -187500.02, 94583.86, 100014.53, 102348.37, 110865.45, 106232.07, -187500.02, -187500.02, 0.000, 0.000, 0.000, 19:05:23.295, 1577145923295
174, -187500.02, 94037.43, 99481.64, 101812.39, 110217.72, 104373.39, -187500.02, -187500.02, 0.000, 0.000, 0.000, 19:05:23.295, 1577145923295
175, -187500.02, 94017.52, 99490.88, 101822.66, 110146.38, 103376.57, -187500.02, -187500.02, 0.000, 0.000, 0.000, 19:05:23.295, 1577145923295
176, -187500.02, 94713.14, 100170.08, 102501.27, 110975.52, 105733.72, -187500.02, -187500.02, 0.000, 0.000, 0.000, 19:05:23.295, 1577145923295
177, -187500.02, 94671.88, 100105.23, 102435.36, 110960.47, 106403.40, -187500.02, -187500.02, 0.000, 0.000, 0.000, 19:05:23.295, 1577145923295
178, -187500.02, 94127.08, 99572.66, 101902.31, 110323.24, 104735.15, -187500.02, -187500.02, 0.000, 0.000, 0.000, 19:05:23.296, 1577145923296
179, -187500.02, 93946.46, 99423.04, 101749.65, 110074.52, 103292.62, -187500.02, -187500.02, 0.000, 0.000, 0.000, 19:05:23.296, 1577145923296
180, -187500.02, 94611.71, 100065.70, 102390.88, 110851.13, 105284.06, -187500.02, -187500.02, 0.000, 0.000, 0.000, 19:05:23.296, 1577145923296
181, -187500.02, 94737.33, 100173.45, 102498.10, 111036.00, 106550.12, -187500.02, -187500.02, 0.180, 0.258, 0.980, 19:05:23.296, 1577145923296
182, -187500.02, 94234.15, 99688.60, 102013.65, 110457.27, 105113.73, -187500.02, -187500.02, 0.000, 0.000, 0.000, 19:05:23.296, 1577145923296
183, -187500.02, 93927.37, 99405.27, 101730.16, 110048.20, 103325.07, -187500.02, -187500.02, 0.000, 0.000, 0.000, 19:05:23.296, 1577145923296
184, -187500.02, 94504.23, 99972.06, 102299.04, 110720.01, 104806.41, -187500.02, -187500.02, 0.000, 0.000, 0.000, 19:05:23.296, 1577145923296
185, -187500.02, 94800.45, 100246.79, 102573.90, 111112.82, 106593.55, -187500.02, -187500.02, 0.000, 0.000, 0.000, 19:05:23.296, 1577145923296
186, -187500.02, 94342.53, 99792.35, 102118.05, 110590.37, 105464.00, -187500.02, -187500.02, 0.000, 0.000, 0.000, 19:05:23.296, 1577145923296
187, -187500.02, 93918.74, 99392.57, 101718.61, 110056.97, 103489.53, -187500.02, -187500.02, 0.000, 0.000, 0.000, 19:05:23.296, 1577145923296
188, -187500.02, 94348.21, 99814.84, 102140.74, 110535.97, 104311.32, -187500.02, -187500.02, 0.000, 0.000, 0.000, 19:05:23.296, 1577145923296
189, -187500.02, 94804.16, 100243.05, 102567.21, 111103.16, 106508.59, -187500.02, -187500.02, 0.000, 0.000, 0.000, 19:05:23.296, 1577145923296
190, -187500.02, 94414.80, 99860.84, 102185.34, 110682.03, 105779.13, -187500.02, -187500.02, 0.000, 0.000, 0.000, 19:05:23.296, 1577145923296
191, -187500.02, 93945.74, 99419.46, 101741.70, 110103.44, 103762.27, -187500.02, -187500.02, 0.182, 0.266, 0.978, 19:05:23.296, 1577145923296
192, -187500.02, 94225.97, 99705.98, 102027.35, 110389.98, 103884.49, -187500.02, -187500.02, 0.000, 0.000, 0.000, 19:05:23.296, 1577145923296
193, -187500.02, 94811.91, 100263.38, 102584.00, 111102.92, 106339.88, -187500.02, -187500.02, 0.000, 0.000, 0.000, 19:05:23.296, 1577145923296
194, -187500.02, 94525.68, 99969.65, 102287.70, 110798.73, 106051.55, -187500.02, -187500.02, 0.000, 0.000, 0.000, 19:05:23.296, 1577145923296
195, -187500.02, 93999.43, 99467.18, 101785.82, 110166.91, 104080.96, -187500.02, -187500.02, 0.000, 0.000, 0.000, 19:05:23.296, 1577145923296
196, -187500.02, 94104.08, 99591.41, 101910.67, 110251.70, 103542.73, -187500.02, -187500.02, 0.000, 0.000, 0.000, 19:05:23.296, 1577145923296
197, -187500.02, 94757.98, 100213.46, 102536.39, 111044.55, 106034.28, -187500.02, -187500.02, 0.000, 0.000, 0.000, 19:05:23.296, 1577145923296
198, -187500.02, 94584.16, 100032.03, 102350.91, 110880.70, 106248.92, -187500.02, -187500.02, 0.000, 0.000, 0.000, 19:05:23.296, 1577145923296
199, -187500.02, 94066.66, 99530.62, 101846.73, 110259.97, 104433.74, -187500.02, -187500.02, 0.000, 0.000, 0.000, 19:05:23.296, 1577145923296
200, -187500.02, 94017.89, 99499.34, 101816.80, 110138.13, 103355.45, -187500.02, -187500.02, 0.000, 0.000, 0.000, 19:05:23.296, 1577145923296
201, -187500.02, 94698.57, 100155.80, 102475.28, 110949.77, 105649.47, -187500.02, -187500.02, 0.180, 0.268, 0.978, 19:05:23.296, 1577145923296
202, -187500.02, 94674.77, 100114.45, 102432.52, 110972.45, 106449.20, -187500.02, -187500.02, 0.000, 0.000, 0.000, 19:05:23.296, 1577145923296
203, -187500.02, 94151.45, 99611.33, 101928.45, 110362.47, 104811.44, -187500.02, -187500.02, 0.000, 0.000, 0.000, 19:05:23.296, 1577145923296
204, -187500.02, 93949.03, 99435.45, 101753.02, 110074.67, 103268.09, -187500.02, -187500.02, 0.000, 0.000, 0.000, 19:05:23.296, 1577145923296
205, -187500.02, 94586.57, 100053.29, 102374.92, 110827.86, 105173.07, -187500.02, -187500.02, 0.000, 0.000, 0.000, 19:05:23.296, 1577145923296
206, -187500.02, 94733.75, 100184.34, 102502.84, 111060.61, 106562.05, -187500.02, -187500.02, 0.000, 0.000, 0.000, 19:05:23.296, 1577145923296
207, -187500.02, 94243.63, 99700.71, 102014.38, 110467.81, 105177.59, -187500.02, -187500.02, 0.000, 0.000, 0.000, 19:05:23.296, 1577145923296
208, -187500.02, 93910.09, 99392.80, 101707.99, 110034.66, 103341.79, -187500.02, -187500.02, 0.000, 0.000, 0.000, 19:05:23.296, 1577145923296
209, -187500.02, 94461.95, 99934.73, 102253.39, 110680.09, 104704.82, -187500.02, -187500.02, 0.000, 0.000, 0.000, 19:05:23.296, 1577145923296
210, -187500.02, 94790.05, 100239.21, 102557.84, 111106.96, 106578.32, -187500.02, -187500.02, 0.000, 0.000, 0.000, 19:05:23.296, 1577145923296
211, -187500.02, 94352.52, 99811.33, 102127.64, 110612.09, 105526.00, -187500.02, -187500.02, 0.176, 0.270, 0.982, 19:05:23.773, 1577145923773
212, -187500.02, 93918.18, 99398.12, 101717.16, 110067.25, 103541.95, -187500.02, -187500.02, 0.000, 0.000, 0.000, 19:05:23.774, 1577145923774
213, -187500.02, 94321.84, 99799.26, 102116.22, 110512.45, 104211.05, -187500.02, -187500.02, 0.000, 0.000, 0.000, 19:05:23.774, 1577145923774
214, -187500.02, 94805.95, 100263.35, 102576.51, 111116.69, 106488.53, -187500.02, -187500.02, 0.000, 0.000, 0.000, 19:05:23.774, 1577145923774
215, -187500.02, 94436.25, 99886.61, 102199.57, 110700.43, 105819.81, -187500.02, -187500.02, 0.000, 0.000, 0.000, 19:05:23.774, 1577145923774
216, -187500.02, 93945.05, 99421.31, 101735.88, 110094.14, 103789.49, -187500.02, -187500.02, 0.000, 0.000, 0.000, 19:05:23.774, 1577145923774
217, -187500.02, 94209.02, 99698.84, 102014.43, 110366.61, 103794.03, -187500.02, -187500.02, 0.000, 0.000, 0.000, 19:05:23.774, 1577145923774
218, -187500.02, 94812.38, 100271.80, 102586.30, 111110.05, 106296.16, -187500.02, -187500.02, 0.000, 0.000, 0.000, 19:05:23.774, 1577145923774
219, -187500.02, 94548.97, 99999.71, 102312.45, 110830.52, 106103.03, -187500.02, -187500.02, 0.000, 0.000, 0.000, 19:05:23.774, 1577145923774
220, -187500.02, 94020.89, 99493.38, 101803.79, 110196.06, 104149.65, -187500.02, -187500.02, 0.000, 0.000, 0.000, 19:05:23.774, 1577145923774
221, -187500.02, 94084.32, 99571.36, 101882.94, 110228.67, 103506.77, -187500.02, -187500.02, 0.176, 0.264, 0.986, 19:05:23.774, 1577145923774
222, -187500.02, 94753.47, 100216.21, 102527.54, 111036.20, 105986.63, -187500.02, -187500.02, 0.000, 0.000, 0.000, 19:05:23.774, 1577145923774
223, -187500.02, 94613.57, 100059.01, 102365.42, 110907.77, 106322.51, -187500.02, -187500.02, 0.000, 0.000, 0.000, 19:05:23.774, 1577145923774
224, -187500.02, 94088.21, 99553.02, 101859.82, 110278.83, 104507.55, -187500.02, -187500.02, 0.000, 0.000, 0.000, 19:05:23.774, 1577145923774
225, -187500.02, 93995.81, 99485.24, 101792.52, 110126.39, 103314.77, -187500.02, -187500.02, 0.000, 0.000, 0.000, 19:05:23.774, 1577145923774
226, -187500.02, 94674.48, 100146.30, 102454.70, 110934.68, 105542.34, -187500.02, -187500.02, 0.000, 0.000, 0.000, 19:05:23.774, 1577145923774
227, -187500.02, 94699.80, 100148.84, 102458.54, 111008.51, 106485.90, -187500.02, -187500.02, 0.000, 0.000, 0.000, 19:05:23.774, 1577145923774
228, -187500.02, 94182.05, 99647.52, 101956.61, 110409.59, 104921.97, -187500.02, -187500.02, 0.000, 0.000, 0.000, 19:05:23.774, 1577145923774
229, -187500.02, 93934.34, 99431.53, 101737.16, 110074.91, 103289.82, -187500.02, -187500.02, 0.000, 0.000, 0.000, 19:05:23.774, 1577145923774
230, -187500.02, 94570.36, 100049.40, 102357.27, 110800.79, 105075.23, -187500.02, -187500.02, 0.000, 0.000, 0.000, 19:05:23.774, 1577145923774
231, -187500.02, 94763.66, 100217.55, 102526.40, 111084.77, 106592.47, -187500.02, -187500.02, 0.178, 0.266, 0.984, 19:05:23.774, 1577145923774
232, -187500.02, 94279.52, 99741.95, 102047.87, 110529.41, 105293.79, -187500.02, -187500.02, 0.000, 0.000, 0.000, 19:05:23.774, 1577145923774
233, -187500.02, 93919.48, 99408.84, 101715.01, 110054.33, 103405.83, -187500.02, -187500.02, 0.000, 0.000, 0.000, 19:05:23.774, 1577145923774
234, -187500.02, 94440.86, 99921.59, 102231.94, 110649.65, 104597.06, -187500.02, -187500.02, 0.000, 0.000, 0.000, 19:05:23.774, 1577145923774
235, -187500.02, 94807.29, 100258.03, 102568.38, 111116.95, 106558.95, -187500.02, -187500.02, 0.000, 0.000, 0.000, 19:05:23.774, 1577145923774
236, -187500.02, 94360.12, 99810.05, 102120.00, 110614.17, 105579.35, -187500.02, -187500.02, 0.000, 0.000, 0.000, 19:05:23.774, 1577145923774
237, -187500.02, 93919.68, 99401.53, 101712.64, 110073.27, 103588.95, -187500.02, -187500.02, 0.000, 0.000, 0.000, 19:05:23.774, 1577145923774
238, -187500.02, 94309.00, 99794.43, 102107.77, 110500.29, 104127.54, -187500.02, -187500.02, 0.000, 0.000, 0.000, 19:05:23.774, 1577145923774
239, -187500.02, 94815.67, 100266.26, 102572.84, 111124.84, 106448.03, -187500.02, -187500.02, 0.000, 0.000, 0.000, 19:05:23.774, 1577145923774
240, -187500.02, 94461.17, 99908.98, 102213.98, 110726.34, 105865.79, -187500.02, -187500.02, 0.000, 0.000, 0.000, 19:05:23.774, 1577145923774
241, -187500.02, 93967.20, 99436.52, 101742.01, 110114.50, 103860.06, -187500.02, -187500.02, 0.180, 0.272, 0.982, 19:05:23.774, 1577145923774
242, -187500.02, 94167.85, 99644.32, 101954.62, 110326.55, 103729.97, -187500.02, -187500.02, 0.000, 0.000, 0.000, 19:05:23.775, 1577145923775
243, -187500.02, 94784.65, 100231.21, 102547.27, 111081.77, 106215.24, -187500.02, -187500.02, 0.000, 0.000, 0.000, 19:05:23.775, 1577145923775
244, -187500.02, 94555.09, 100000.78, 102316.31, 110848.42, 106145.16, -187500.02, -187500.02, 0.000, 0.000, 0.000, 19:05:23.775, 1577145923775
245, -187500.02, 94031.28, 99495.45, 101812.10, 110212.16, 104234.43, -187500.02, -187500.02, 0.000, 0.000, 0.000, 19:05:23.775, 1577145923775
246, -187500.02, 94059.00, 99536.02, 101855.66, 110197.74, 103446.89, -187500.02, -187500.02, 0.000, 0.000, 0.000, 19:05:23.775, 1577145923775
247, -187500.02, 94743.56, 100193.59, 102517.21, 111025.02, 105890.00, -187500.02, -187500.02, 0.000, 0.000, 0.000, 19:05:23.775, 1577145923775
248, -187500.02, 94646.65, 100079.42, 102406.30, 110950.86, 106359.45, -187500.02, -187500.02, 0.000, 0.000, 0.000, 19:05:23.775, 1577145923775
249, -187500.02, 94106.90, 99558.49, 101886.55, 110318.10, 104602.88, -187500.02, -187500.02, 0.000, 0.000, 0.000, 19:05:23.775, 1577145923775
250, -187500.02, 93985.64, 99462.42, 101790.04, 110122.21, 103293.64, -187500.02, -187500.02, 0.000, 0.000, 0.000, 19:05:23.775, 1577145923775
251, -187500.02, 94655.86, 100110.64, 102442.13, 110915.63, 105440.41, -187500.02, -187500.02, 0.178, 0.274, 0.984, 19:05:23.775, 1577145923775
252, -187500.02, 94716.27, 100146.18, 102482.01, 111021.87, 106495.51, -187500.02, -187500.02, 0.000, 0.000, 0.000, 19:05:23.775, 1577145923775
253, -187500.02, 94198.20, 99637.05, 101972.09, 110419.78, 104954.16, -187500.02, -187500.02, 0.000, 0.000, 0.000, 19:05:23.775, 1577145923775
254, -187500.02, 93928.02, 99388.39, 101727.39, 110059.77, 103269.44, -187500.02, -187500.02, 0.000, 0.000, 0.000, 19:05:23.775, 1577145923775
255, -187500.02, 94535.67, 99991.62, 102329.26, 110771.53, 104982.90, -187500.02, -187500.02, 0.000, 0.000, 0.000, 19:05:23.775, 1577145923775
0, -187500.02, 94779.64, 100198.44, 102535.25, 111079.49, 106585.12, -187500.02, -187500.02, 0.000, 0.000, 0.000, 19:05:23.775, 1577145923775
1, -187500.02, 94291.05, 99716.83, 102056.90, 110527.12, 105324.63, -187500.02, -187500.02, 0.000, 0.000, 0.000, 19:05:23.775, 1577145923775
2, -187500.02, 93918.90, 99373.86, 101713.48, 110056.52, 103402.27, -187500.02, -187500.02, 0.000, 0.000, 0.000, 19:05:23.775, 1577145923775
3, -187500.02, 94424.45, 99874.50, 102214.66, 110628.50, 104481.20, -187500.02, -187500.02, 0.000, 0.000, 0.000, 19:05:23.775, 1577145923775
4, -187500.02, 94816.19, 100235.01, 102577.63, 111128.27, 106541.22, -187500.02, -187500.02, 0.000, 0.000, 0.000, 19:05:23.775, 1577145923775
5, -187500.02, 94398.92, 99820.63, 102162.69, 110654.77, 105638.72, -187500.02, -187500.02, 0.180, 0.270, 0.986, 19:05:23.775, 1577145923775
6, -187500.02, 93935.69, 99386.31, 101727.10, 110079.84, 103626.46, -187500.02, -187500.02, 0.000, 0.000, 0.000, 19:05:23.775, 1577145923775
7, -187500.02, 94283.43, 99734.66, 102076.21, 110456.08, 104032.23, -187500.02, -187500.02, 0.000, 0.000, 0.000, 19:05:23.775, 1577145923775
8, -187500.02, 94820.50, 100246.97, 102589.30, 111142.97, 106427.88, -187500.02, -187500.02, 0.000, 0.000, 0.000, 19:05:23.775, 1577145923775
9, -187500.02, 94504.09, 99927.70, 102268.46, 110783.38, 105955.38, -187500.02, -187500.02, 0.000, 0.000, 0.000, 19:05:23.775, 1577145923775
10, -187500.02, 93984.27, 99427.93, 101770.13, 110156.45, 103957.96, -187500.02, -187500.02, 0.000, 0.000, 0.000, 19:05:23.775, 1577145923775
11, -187500.02, 94142.39, 99595.08, 101937.85, 110303.91, 103653.26, -187500.02, -187500.02, 0.000, 0.000, 0.000, 19:05:23.775, 1577145923775
12, -187500.02, 94783.98, 100210.71, 102554.59, 111083.65, 106152.37, -187500.02, -187500.02, 0.000, 0.000, 0.000, 19:05:23.775, 1577145923775
13, -187500.02, 94570.02, 99989.05, 102332.79, 110871.89, 106190.43, -187500.02, -187500.02, 0.000, 0.000, 0.000, 19:05:23.775, 1577145923775
14, -187500.02, 94055.66, 99497.40, 101840.87, 110242.06, 104296.16, -187500.02, -187500.02, 0.000, 0.000, 0.000, 19:05:23.775, 1577145923775
15, -187500.02, 94055.60, 99513.41, 101857.99, 110200.98, 103390.02, -187500.02, -187500.02, 0.176, 0.266, 0.990, 19:05:23.775, 1577145923775
16, -187500.02, 94724.34, 100157.41, 102501.70, 111005.78, 105787.88, -187500.02, -187500.02, 0.000, 0.000, 0.000, 19:05:23.775, 1577145923775
17, -187500.02, 94652.59, 100068.84, 102411.80, 110958.48, 106380.58, -187500.02, -187500.02, 0.000, 0.000, 0.000, 19:05:23.775, 1577145923775
18, -187500.02, 94120.38, 99554.69, 101898.00, 110331.73, 104651.89, -187500.02, -187500.02, 0.000, 0.000, 0.000, 19:05:23.776, 1577145923776
19, -187500.02, 93968.23, 99424.49, 101769.03, 110102.07, 103279.27, -187500.02, -187500.02, 0.000, 0.000, 0.000, 19:05:23.776, 1577145923776
20, -187500.02, 94638.02, 100077.98, 102422.71, 110899.31, 105372.36, -187500.02, -187500.02, 0.000, 0.000, 0.000, 19:05:23.776, 1577145923776
21, -187500.02, 94730.96, 100147.62, 102492.89, 111045.12, 106506.84, -187500.02, -187500.02, 0.000, 0.000, 0.000, 19:05:23.776, 1577145923776
22, -187500.02, 94223.59, 99653.06, 101997.13, 110454.85, 105036.72, -187500.02, -187500.02, 0.000, 0.000, 0.000, 19:05:23.776, 1577145923776
23, -187500.02, 93938.63, 99391.68, 101735.46, 110069.46, 103320.71, -187500.02, -187500.02, 0.000, 0.000, 0.000, 19:05:23.776, 1577145923776
24, -187500.02, 94514.08, 99950.49, 102297.59, 110741.89, 104879.66, -187500.02, -187500.02, 0.000, 0.000, 0.000, 19:05:23.776, 1577145923776
25, -187500.02, 94767.84, 100175.11, 102523.24, 111081.15, 106558.72, -187500.02, -187500.02, 0.176, 0.270, 0.988, 19:05:23.776, 1577145923776
26, -187500.02, 94301.80, 99716.80, 102067.77, 110546.98, 105378.39, -187500.02, -187500.02, 0.000, 0.000, 0.000, 19:05:23.776, 1577145923776
27, -187500.02, 93914.65, 99356.49, 101712.70, 110056.25, 103442.06, -187500.02, -187500.02, 0.000, 0.000, 0.000, 19:05:23.776, 1577145923776
28, -187500.02, 94379.59, 99816.25, 102172.48, 110582.75, 104380.68, -187500.02, -187500.02, 0.000, 0.000, 0.000, 19:05:23.776, 1577145923776
29, -187500.02, 94818.91, 100226.65, 102586.01, 111131.39, 106523.85, -187500.02, -187500.02, 0.000, 0.000, 0.000, 19:05:23.776, 1577145923776
30, -187500.02, 94404.22, 99811.96, 102173.15, 110665.02, 105665.88, -187500.02, -187500.02, 0.000, 0.000, 0.000, 19:05:23.776, 1577145923776
31, -187500.02, 93942.10, 99380.21, 101741.98, 110100.60, 103658.91, -187500.02, -187500.02, 0.000, 0.000, 0.000, 19:05:23.776, 1577145923776
32, -187500.02, 94259.43, 99701.56, 102063.74, 110441.62, 103959.13, -187500.02, -187500.02, 0.000, 0.000, 0.000, 19:05:23.776, 1577145923776
33, -187500.02, 94813.57, 100217.82, 102580.22, 111117.02, 106376.89, -187500.02, -187500.02, 0.000, 0.000, 0.000, 19:05:23.776, 1577145923776
34, -187500.02, 94514.98, 99917.84, 102283.14, 110797.21, 105994.85, -187500.02, -187500.02, 0.000, 0.000, 0.000, 19:05:23.776, 1577145923776
35, -187500.02, 94004.35, 99429.61, 101792.95, 110176.69, 104010.06, -187500.02, -187500.02, 0.178, 0.268, 0.984, 19:05:23.776, 1577145923776
36, -187500.02, 94142.55, 99575.48, 101939.66, 110288.63, 103591.26, -187500.02, -187500.02, 0.000, 0.000, 0.000, 19:05:23.776, 1577145923776
37, -187500.02, 94778.05, 100179.87, 102546.88, 111062.80, 106087.61, -187500.02, -187500.02, 0.000, 0.000, 0.000, 19:05:23.776, 1577145923776
38, -187500.02, 94596.58, 99991.66, 102359.88, 110898.29, 106236.88, -187500.02, -187500.02, 0.000, 0.000, 0.000, 19:05:23.776, 1577145923776
39, -187500.02, 94066.06, 99479.85, 101848.58, 110269.40, 104379.27, -187500.02, -187500.02, 0.000, 0.000, 0.000, 19:05:23.776, 1577145923776
40, -187500.02, 94032.27, 99472.70, 101840.29, 110180.35, 103377.58, -187500.02, -187500.02, 0.000, 0.000, 0.000, 19:05:23.776, 1577145923776
41, -187500.02, 94727.25, 100139.66, 102509.74, 110998.52, 105717.89, -187500.02, -187500.02, 0.000, 0.000, 0.000, 19:05:23.776, 1577145923776
42, -187500.02, 94682.95, 100071.64, 102441.84, 110996.32, 106432.16, -187500.02, -187500.02, 0.000, 0.000, 0.000, 19:05:23.776, 1577145923776
43, -187500.02, 94157.62, 99566.16, 101934.52, 110375.77, 104748.72, -187500.02, -187500.02, 0.000, 0.000, 0.000, 19:05:23.776, 1577145923776
44, -187500.02, 93984.45, 99417.49, 101787.56, 110111.24, 103276.77, -187500.02, -187500.02, 0.000, 0.000, 0.000, 19:05:23.776, 1577145923776
45, -187500.02, 94633.88, 100053.34, 102423.83, 110880.49, 105261.65, -187500.02, -187500.02, 0.178, 0.266, 0.984, 19:05:23.776, 1577145923776
46, -187500.02, 94753.58, 100137.33, 102505.43, 111067.91, 106546.07, -187500.02, -187500.02, 0.000, 0.000, 0.000, 19:05:23.776, 1577145923776
47, -187500.02, 94247.67, 99642.11, 102011.70, 110486.59, 105127.91, -187500.02, -187500.02, 0.000, 0.000, 0.000, 19:05:23.776, 1577145923776
48, -187500.02, 93940.45, 99376.57, 101747.69, 110086.27, 103321.63, -187500.02, -187500.02, 0.000, 0.000, 0.000, 19:05:23.776, 1577145923776
49, -187500.02, 94502.75, 99928.37, 102301.78, 110727.03, 104741.63, -187500.02, -187500.02, 0.000, 0.000, 0.000, 19:05:23.776, 1577145923776
50, -187500.02, 94796.07, 100178.73, 102547.61, 111098.27, 106556.59, -187500.02, -187500.02, 0.000, 0.000, 0.000, 19:05:23.776, 1577145923776
51, -187500.02, 94348.19, 99731.31, 102103.30, 110601.63, 105472.63, -187500.02, -187500.02, 0.000, 0.000, 0.000, 19:05:23.776, 1577145923776
52, -187500.02, 93943.80, 99360.48, 101735.17, 110093.47, 103508.98, -187500.02, -187500.02, 0.000, 0.000, 0.000, 19:05:23.778, 1577145923778
53, -187500.02, 94382.88, 99803.84, 102181.13, 110589.52, 104326.27, -187500.02, -187500.02, 0.000, 0.000, 0.000, 19:05:23.778, 1577145923778
54, -187500.02, 94820.63, 100205.73, 102582.75, 111142.39, 106500.72, -187500.02, -187500.02, 0.000, 0.000, 0.000, 19:05:23.778, 1577145923778
55, -187500.02, 94433.34, 99819.29, 102193.94, 110711.07, 105767.58, -187500.02, -187500.02, 0.000, 0.000, 0.000, 19:05:23.778, 1577145923778
56, -187500.02, 93969.81, 99384.55, 101761.39, 110138.09, 103766.80, -187500.02, -187500.02, 0.178, 0.266, 0.978, 19:05:23.778, 1577145923778
57, -187500.02, 94244.30, 99666.36, 102045.21, 110416.52, 103857.02, -187500.02, -187500.02, 0.000, 0.000, 0.000, 19:05:23.778, 1577145923778
58, -187500.02, 94819.16, 100205.03, 102586.91, 111116.09, 106296.71, -187500.02, -187500.02, 0.000, 0.000, 0.000, 19:05:23.778, 1577145923778
59, -187500.02, 94518.84, 99899.77, 102280.59, 110813.82, 106045.59, -187500.02, -187500.02, 0.000, 0.000, 0.000, 19:05:23.778, 1577145923778
60, -187500.02, 93990.16, 99394.09, 101773.44, 110187.55, 104092.95, -187500.02, -187500.02, 0.000, 0.000, 0.000, 19:05:23.778, 1577145923778
61, -187500.02, 94082.09, 99498.16, 101880.12, 110245.55, 103501.72, -187500.02, -187500.02, 0.000, 0.000, 0.000, 19:05:23.778, 1577145923778
62, -187500.02, 94738.27, 100131.84, 102510.88, 111028.45, 105973.02, -187500.02, -187500.02, 0.000, 0.000, 0.000, 19:05:23.778, 1577145923778
63, -187500.02, 94585.25, 99966.41, 102344.97, 110893.23, 106233.66, -187500.02, -187500.02, 0.000, 0.000, 0.000, 19:05:23.778, 1577145923778
64, -187500.02, 94061.52, 99461.75, 101841.49, 110271.95, 104433.78, -187500.02, -187500.02, 0.000, 0.000, 0.000, 19:05:23.778, 1577145923778
