%OpenBCI Raw EEG Data
%Number of channels = 8
%Sample Rate = 250.0 Hz
%First Column = SampleIndex
%Last Column = Timestamp 
%Other Columns = EEG data in microvolts followed by Accel Data (in G) interleaved with Aux Data
0, 0.00, 0.00, 0.00, 0.00, 0.00, 0.00, 0.00, 0.00, 0.198, 0.266, 0.980, 18:57:54.990, 1577145474990
1, -187500.02, 90876.42, 96933.95, 102585.07, 104286.33, 97206.98, -187500.02, -187500.02, 0.000, 0.000, 0.000, 18:57:55.477, 1577145475477
2, -187500.02, 90721.84, 96734.79, 102384.60, 104210.38, 98771.48, -187500.02, -187500.02, 0.000, 0.000, 0.000, 18:57:55.478, 1577145475478
3, -187500.02, 90396.95, 96449.72, 102101.24, 103830.84, 97266.14, -187500.02, -187500.02, 0.000, 0.000, 0.000, 18:57:55.478, 1577145475478
4, -187500.02, 90449.28, 96550.70, 102200.60, 103789.79, 95382.67, -187500.02, -187500.02, 0.000, 0.000, 0.000, 18:57:55.478, 1577145475478
5, -187500.02, 90835.23, 96921.90, 102568.71, 104231.79, 96725.18, -187500.02, -187500.02, 0.000, 0.000, 0.000, 18:57:55.478, 1577145475478
6, -187500.02, 90793.68, 96816.89, 102462.02, 104279.58, 98827.77, -187500.02, -187500.02, 0.000, 0.000, 0.000, 18:57:55.478, 1577145475478
7, -187500.02, 90426.15, 96460.49, 102105.60, 103861.20, 97624.19, -187500.02, -187500.02, 0.000, 0.000, 0.000, 18:57:55.478, 1577145475478
8, -187500.02, 90400.45, 96481.03, 102127.73, 103721.84, 95554.77, -187500.02, -187500.02, 0.198, 0.268, 0.984, 18:57:55.478, 1577145475478
9, -187500.02, 90790.46, 96876.97, 102526.55, 104134.38, 96183.09, -187500.02, -187500.02, 0.000, 0.000, 0.000, 18:57:55.478, 1577145475478
10, -187500.02, 90859.77, 96887.12, 102537.02, 104352.98, 98710.98, -187500.02, -187500.02, 0.000, 0.000, 0.000, 18:57:55.478, 1577145475478
11, -187500.02, 90474.20, 96501.82, 102147.49, 103936.10, 97952.00, -187500.02, -187500.02, 0.000, 0.000, 0.000, 18:57:55.478, 1577145475478
12, -187500.02, 90367.01, 96439.33, 102083.92, 103712.96, 95863.30, -187500.02, -187500.02, 0.000, 0.000, 0.000, 18:57:55.478, 1577145475478
13, -187500.02, 90696.63, 96787.30, 102435.88, 104030.54, 95743.54, -187500.02, -187500.02, 0.000, 0.000, 0.000, 18:57:55.478, 1577145475478
14, -187500.02, 90896.92, 96932.34, 102578.09, 104368.78, 98463.30, -187500.02, -187500.02, 0.000, 0.000, 0.000, 18:57:55.479, 1577145475479
15, -187500.02, 90539.74, 96558.82, 102201.13, 104003.63, 98263.00, -187500.02, -187500.02, 0.000, 0.000, 0.000, 18:57:55.479, 1577145475479
16, -187500.02, 90362.06, 96425.60, 102069.20, 103722.53, 96215.43, -187500.02, -187500.02, 0.000, 0.000, 0.000, 18:57:55.479, 1577145475479
17, -187500.02, 90638.09, 96728.73, 102376.38, 103959.70, 95458.91, -187500.02, -187500.02, 0.000, 0.000, 0.000, 18:57:55.479, 1577145475479
18, -187500.02, 90901.41, 96934.66, 102582.95, 104359.35, 98115.91, -187500.02, -187500.02, 0.200, 0.270, 0.980, 18:57:55.479, 1577145475479
19, -187500.02, 90611.16, 96626.68, 102273.06, 104090.38, 98496.96, -187500.02, -187500.02, 0.000, 0.000, 0.000, 18:57:55.479, 1577145475479
20, -187500.02, 90373.15, 96424.44, 102073.06, 103759.27, 96582.11, -187500.02, -187500.02, 0.000, 0.000, 0.000, 18:57:55.479, 1577145475479
21, -187500.02, 90571.73, 96660.09, 102311.73, 103885.70, 95282.09, -187500.02, -187500.02, 0.000, 0.000, 0.000, 18:57:55.479, 1577145475479
22, -187500.02, 90912.21, 96948.77, 102601.09, 104336.17, 97656.29, -187500.02, -187500.02, 0.000, 0.000, 0.000, 18:57:55.479, 1577145475479
23, -187500.02, 90685.00, 96681.88, 102333.46, 104164.89, 98691.51, -187500.02, -187500.02, 0.000, 0.000, 0.000, 18:57:55.479, 1577145475479
24, -187500.02, 90375.27, 96404.75, 102056.32, 103777.11, 96953.75, -187500.02, -187500.02, 0.000, 0.000, 0.000, 18:57:55.479, 1577145475479
25, -187500.02, 90489.23, 96563.84, 102217.74, 103796.87, 95258.23, -187500.02, -187500.02, 0.000, 0.000, 0.000, 18:57:55.479, 1577145475479
26, -187500.02, 90871.75, 96906.27, 102564.95, 104276.85, 97142.65, -187500.02, -187500.02, 0.000, 0.000, 0.000, 18:57:55.479, 1577145475479
27, -187500.02, 90733.91, 96733.38, 102388.73, 104219.90, 98775.24, -187500.02, -187500.02, 0.000, 0.000, 0.000, 18:57:55.479, 1577145475479
28, -187500.02, 90430.70, 96447.51, 102100.59, 103820.81, 97293.99, -187500.02, -187500.02, 0.192, 0.266, 0.980, 18:57:55.479, 1577145475479
29, -187500.02, 90459.48, 96520.59, 102181.66, 103767.61, 95363.09, -187500.02, -187500.02, 0.000, 0.000, 0.000, 18:57:55.479, 1577145475479
30, -187500.02, 90858.77, 96910.81, 102573.98, 104239.77, 96635.88, -187500.02, -187500.02, 0.000, 0.000, 0.000, 18:57:55.479, 1577145475479
31, -187500.02, 90835.03, 96830.05, 102485.27, 104313.71, 98816.70, -187500.02, -187500.02, 0.000, 0.000, 0.000, 18:57:55.479, 1577145475479
32, -187500.02, 90470.45, 96468.70, 102124.45, 103884.73, 97668.56, -187500.02, -187500.02, 0.000, 0.000, 0.000, 18:57:55.479, 1577145475479
33, -187500.02, 90422.84, 96488.84, 102145.59, 103739.56, 95593.76, -187500.02, -187500.02, 0.000, 0.000, 0.000, 18:57:55.479, 1577145475479
34, -187500.02, 90792.88, 96857.91, 102513.68, 104129.87, 96112.79, -187500.02, -187500.02, 0.000, 0.000, 0.000, 18:57:55.479, 1577145475479
35, -187500.02, 90884.58, 96883.61, 102537.35, 104344.27, 98670.48, -187500.02, -187500.02, 0.000, 0.000, 0.000, 18:57:55.480, 1577145475480
36, -187500.02, 90519.63, 96519.16, 102174.54, 103962.52, 98003.55, -187500.02, -187500.02, 0.000, 0.000, 0.000, 18:57:55.480, 1577145475480
37, -187500.02, 90401.11, 96452.20, 102111.23, 103750.83, 95926.29, -187500.02, -187500.02, 0.000, 0.000, 0.000, 18:57:55.480, 1577145475480
38, -187500.02, 90722.71, 96790.52, 102446.73, 104056.04, 95747.29, -187500.02, -187500.02, 0.188, 0.262, 0.976, 18:57:55.480, 1577145475480
39, -187500.02, 90913.37, 96917.52, 102572.55, 104369.05, 98458.47, -187500.02, -187500.02, 0.000, 0.000, 0.000, 18:57:55.480, 1577145475480
40, -187500.02, 90565.48, 96559.09, 102218.03, 104018.96, 98288.48, -187500.02, -187500.02, 0.000, 0.000, 0.000, 18:57:55.480, 1577145475480
41, -187500.02, 90371.59, 96411.07, 102069.22, 103718.17, 96228.37, -187500.02, -187500.02, 0.000, 0.000, 0.000, 18:57:55.480, 1577145475480
42, -187500.02, 90652.77, 96722.45, 102376.66, 103949.06, 95411.23, -187500.02, -187500.02, 0.000, 0.000, 0.000, 18:57:55.480, 1577145475480
43, -187500.02, 90945.31, 96956.09, 102610.28, 104370.08, 98087.41, -187500.02, -187500.02, 0.000, 0.000, 0.000, 18:57:55.480, 1577145475480
44, -187500.02, 90639.14, 96626.09, 102282.16, 104101.19, 98541.75, -187500.02, -187500.02, 0.000, 0.000, 0.000, 18:57:55.480, 1577145475480
45, -187500.02, 90397.89, 96426.52, 102084.08, 103776.27, 96646.10, -187500.02, -187500.02, 0.000, 0.000, 0.000, 18:57:55.480, 1577145475480
46, -187500.02, 90582.59, 96649.77, 102306.77, 103883.39, 95284.74, -187500.02, -187500.02, 0.000, 0.000, 0.000, 18:57:55.480, 1577145475480
47, -187500.02, 90937.60, 96955.02, 102611.47, 104343.48, 97617.48, -187500.02, -187500.02, 0.000, 0.000, 0.000, 18:57:55.480, 1577145475480
48, -187500.02, 90715.55, 96698.02, 102352.05, 104174.08, 98714.82, -187500.02, -187500.02, 0.188, 0.262, 0.976, 18:57:55.480, 1577145475480
49, -187500.02, 90404.06, 96419.55, 102077.30, 103796.71, 96994.88, -187500.02, -187500.02, 0.000, 0.000, 0.000, 18:57:55.480, 1577145475480
50, -187500.02, 90507.38, 96574.15, 102234.10, 103815.91, 95265.39, -187500.02, -187500.02, 0.000, 0.000, 0.000, 18:57:55.480, 1577145475480
51, -187500.02, 90907.54, 96943.85, 102597.90, 104294.11, 97092.94, -187500.02, -187500.02, 0.000, 0.000, 0.000, 18:57:55.480, 1577145475480
52, -187500.02, 90776.71, 96755.38, 102405.81, 104239.34, 98806.17, -187500.02, -187500.02, 0.000, 0.000, 0.000, 18:57:55.480, 1577145475480
53, -187500.02, 90437.59, 96444.11, 102093.78, 103834.98, 97360.26, -187500.02, -187500.02, 0.000, 0.000, 0.000, 18:57:55.480, 1577145475480
54, -187500.02, 90466.29, 96523.99, 102177.91, 103763.12, 95388.57, -187500.02, -187500.02, 0.000, 0.000, 0.000, 18:57:55.481, 1577145475481
55, -187500.02, 90855.95, 96896.02, 102554.63, 104218.00, 96550.08, -187500.02, -187500.02, 0.000, 0.000, 0.000, 18:57:55.481, 1577145475481
56, -187500.02, 90838.13, 96828.52, 102480.40, 104312.15, 98808.12, -187500.02, -187500.02, 0.000, 0.000, 0.000, 18:57:55.481, 1577145475481
57, -187500.02, 90474.59, 96481.10, 102128.58, 103893.77, 97700.52, -187500.02, -187500.02, 0.000, 0.000, 0.000, 18:57:55.481, 1577145475481
58, -187500.02, 90427.09, 96487.91, 102138.70, 103750.40, 95614.55, -187500.02, -187500.02, 0.196, 0.268, 0.978, 18:57:55.481, 1577145475481
59, -187500.02, 90804.80, 96862.04, 102512.92, 104139.99, 96082.34, -187500.02, -187500.02, 0.000, 0.000, 0.000, 18:57:55.481, 1577145475481
60, -187500.02, 90901.13, 96895.19, 102548.19, 104365.92, 98685.85, -187500.02, -187500.02, 0.000, 0.000, 0.000, 18:57:55.481, 1577145475481
61, -187500.02, 90519.84, 96515.88, 102171.61, 103970.50, 98041.50, -187500.02, -187500.02, 0.000, 0.000, 0.000, 18:57:55.481, 1577145475481
62, -187500.02, 90391.97, 96436.58, 102092.02, 103742.35, 95959.99, -187500.02, -187500.02, 0.000, 0.000, 0.000, 18:57:55.481, 1577145475481
63, -187500.02, 90715.36, 96776.55, 102431.18, 104042.13, 95679.63, -187500.02, -187500.02, 0.000, 0.000, 0.000, 18:57:55.481, 1577145475481
64, -187500.02, 90925.40, 96921.20, 102576.20, 104381.10, 98416.72, -187500.02, -187500.02, 0.000, 0.000, 0.000, 18:57:55.481, 1577145475481
65, -187500.02, 90587.35, 96569.10, 102224.72, 104039.90, 98330.71, -187500.02, -187500.02, 0.000, 0.000, 0.000, 18:57:55.481, 1577145475481
66, -187500.02, 90390.01, 96422.23, 102074.96, 103749.93, 96300.34, -187500.02, -187500.02, 0.000, 0.000, 0.000, 18:57:55.481, 1577145475481
67, -187500.02, 90644.68, 96705.55, 102360.99, 103953.38, 95394.20, -187500.02, -187500.02, 0.000, 0.000, 0.000, 18:57:55.481, 1577145475481
68, -187500.02, 90938.94, 96943.96, 102601.08, 104377.13, 98025.74, -187500.02, -187500.02, 0.192, 0.268, 0.980, 18:57:55.481, 1577145475481
69, -187500.02, 90648.34, 96630.66, 102286.59, 104118.84, 98560.98, -187500.02, -187500.02, 0.000, 0.000, 0.000, 18:57:55.481, 1577145475481
70, -187500.02, 90399.15, 96422.88, 102078.60, 103777.38, 96670.46, -187500.02, -187500.02, 0.000, 0.000, 0.000, 18:57:55.481, 1577145475481
71, -187500.02, 90587.08, 96651.98, 102309.54, 103891.69, 95275.02, -187500.02, -187500.02, 0.000, 0.000, 0.000, 18:57:55.481, 1577145475481
72, -187500.02, 90943.41, 96964.68, 102620.34, 104366.05, 97569.23, -187500.02, -187500.02, 0.000, 0.000, 0.000, 18:57:55.481, 1577145475481
73, -187500.02, 90724.86, 96708.75, 102358.78, 104203.94, 98757.73, -187500.02, -187500.02, 0.000, 0.000, 0.000, 18:57:55.481, 1577145475481
74, -187500.02, 90423.22, 96435.30, 102084.93, 103821.46, 97065.15, -187500.02, -187500.02, 0.000, 0.000, 0.000, 18:57:55.481, 1577145475481
75, -187500.02, 90510.55, 96568.32, 102220.76, 103805.56, 95258.15, -187500.02, -187500.02, 0.000, 0.000, 0.000, 18:57:55.481, 1577145475481
76, -187500.02, 90912.95, 96944.30, 102597.12, 104302.20, 97017.19, -187500.02, -187500.02, 0.000, 0.000, 0.000, 18:57:55.481, 1577145475481
77, -187500.02, 90792.31, 96774.58, 102426.10, 104275.38, 98834.80, -187500.02, -187500.02, 0.000, 0.000, 0.000, 18:57:55.481, 1577145475481
78, -187500.02, 90429.81, 96429.69, 102077.15, 103839.90, 97402.41, -187500.02, -187500.02, 0.198, 0.264, 0.980, 18:57:55.481, 1577145475481
79, -187500.02, 90457.64, 96520.57, 102166.02, 103773.40, 95408.82, -187500.02, -187500.02, 0.000, 0.000, 0.000, 18:57:55.481, 1577145475481
80, -187500.02, 90857.49, 96903.28, 102546.78, 104218.42, 96498.98, -187500.02, -187500.02, 0.000, 0.000, 0.000, 18:57:55.481, 1577145475481
81, -187500.02, 90864.06, 96844.92, 102487.77, 104332.27, 98807.78, -187500.02, -187500.02, 0.000, 0.000, 0.000, 18:57:55.481, 1577145475481
82, -187500.02, 90474.12, 96472.34, 102117.12, 103909.30, 97742.34, -187500.02, -187500.02, 0.000, 0.000, 0.000, 18:57:55.481, 1577145475481
83, -187500.02, 90411.44, 96462.15, 102105.78, 103745.41, 95653.57, -187500.02, -187500.02, 0.000, 0.000, 0.000, 18:57:55.481, 1577145475481
84, -187500.02, 90802.70, 96856.23, 102498.95, 104143.88, 96030.80, -187500.02, -187500.02, 0.000, 0.000, 0.000, 18:57:55.481, 1577145475481
85, -187500.02, 90926.55, 96925.45, 102563.75, 104398.24, 98670.95, -187500.02, -187500.02, 0.000, 0.000, 0.000, 18:57:55.481, 1577145475481
86, -187500.02, 90548.66, 96547.38, 102179.30, 103993.09, 98090.02, -187500.02, -187500.02, 0.000, 0.000, 0.000, 18:57:55.481, 1577145475481
87, -187500.02, 90410.88, 96448.16, 102081.46, 103744.08, 95995.27, -187500.02, -187500.02, 0.000, 0.000, 0.000, 18:57:55.482, 1577145475482
88, -187500.02, 90736.68, 96795.70, 102432.45, 104053.02, 95639.96, -187500.02, -187500.02, 0.196, 0.262, 0.984, 18:57:55.482, 1577145475482
89, -187500.02, 90944.64, 96945.28, 102580.13, 104399.14, 98387.88, -187500.02, -187500.02, 0.000, 0.000, 0.000, 18:57:55.482, 1577145475482
90, -187500.02, 90597.36, 96581.62, 102214.79, 104051.14, 98363.68, -187500.02, -187500.02, 0.000, 0.000, 0.000, 18:57:55.482, 1577145475482
91, -187500.02, 90388.87, 96422.61, 102057.03, 103747.48, 96328.28, -187500.02, -187500.02, 0.000, 0.000, 0.000, 18:57:55.482, 1577145475482
92, -187500.02, 90640.70, 96709.00, 102342.60, 103948.64, 95351.38, -187500.02, -187500.02, 0.000, 0.000, 0.000, 18:57:55.482, 1577145475482
93, -187500.02, 90942.70, 96956.55, 102589.77, 104378.09, 97960.61, -187500.02, -187500.02, 0.000, 0.000, 0.000, 18:57:55.482, 1577145475482
94, -187500.02, 90659.73, 96642.59, 102275.73, 104131.34, 98585.02, -187500.02, -187500.02, 0.000, 0.000, 0.000, 18:57:55.482, 1577145475482
95, -187500.02, 90384.75, 96404.88, 102040.18, 103775.44, 96714.90, -187500.02, -187500.02, 0.000, 0.000, 0.000, 18:57:55.482, 1577145475482
96, -187500.02, 90561.94, 96626.81, 102259.18, 103860.75, 95232.69, -187500.02, -187500.02, 0.000, 0.000, 0.000, 18:57:55.482, 1577145475482
97, -187500.02, 90930.89, 96956.09, 102588.98, 104341.96, 97476.09, -187500.02, -187500.02, 0.000, 0.000, 0.000, 18:57:55.482, 1577145475482
98, -187500.02, 90729.93, 96713.36, 102346.31, 104210.89, 98766.50, -187500.02, -187500.02, 0.200, 0.260, 0.978, 18:57:55.482, 1577145475482
99, -187500.02, 90421.95, 96437.91, 102068.52, 103817.45, 97096.20, -187500.02, -187500.02, 0.000, 0.000, 0.000, 18:57:55.482, 1577145475482
100, -187500.02, 90517.72, 96574.02, 102211.77, 103814.33, 95262.59, -187500.02, -187500.02, 0.000, 0.000, 0.000, 18:57:55.482, 1577145475482
101, -187500.02, 90901.45, 96931.22, 102563.39, 104290.17, 96947.02, -187500.02, -187500.02, 0.000, 0.000, 0.000, 18:57:55.482, 1577145475482
102, -187500.02, 90805.21, 96787.79, 102414.93, 104271.69, 98823.12, -187500.02, -187500.02, 0.000, 0.000, 0.000, 18:57:55.482, 1577145475482
103, -187500.02, 90453.57, 96449.59, 102082.72, 103861.13, 97443.63, -187500.02, -187500.02, 0.000, 0.000, 0.000, 18:57:55.482, 1577145475482
104, -187500.02, 90464.15, 96512.98, 102144.77, 103782.01, 95455.70, -187500.02, -187500.02, 0.000, 0.000, 0.000, 18:57:55.482, 1577145475482
105, -187500.02, 90853.80, 96891.55, 102521.93, 104210.24, 96433.40, -187500.02, -187500.02, 0.000, 0.000, 0.000, 18:57:55.482, 1577145475482
106, -187500.02, 90867.77, 96853.32, 102480.20, 104338.03, 98783.82, -187500.02, -187500.02, 0.000, 0.000, 0.000, 18:57:55.482, 1577145475482
107, -187500.02, 90501.36, 96493.95, 102121.49, 103928.74, 97800.59, -187500.02, -187500.02, 0.000, 0.000, 0.000, 18:57:55.482, 1577145475482
108, -187500.02, 90435.22, 96472.72, 102103.52, 103756.55, 95706.32, -187500.02, -187500.02, 0.196, 0.264, 0.984, 18:57:55.482, 1577145475482
109, -187500.02, 90805.45, 96857.88, 102489.25, 104143.32, 95971.26, -187500.02, -187500.02, 0.000, 0.000, 0.000, 18:57:55.482, 1577145475482
110, -187500.02, 90927.30, 96917.34, 102545.69, 104393.20, 98636.73, -187500.02, -187500.02, 0.000, 0.000, 0.000, 18:57:55.483, 1577145475483
111, -187500.02, 90564.08, 96549.79, 102177.82, 104012.07, 98140.78, -187500.02, -187500.02, 0.000, 0.000, 0.000, 18:57:55.483, 1577145475483
112, -187500.02, 90419.24, 96454.95, 102085.46, 103764.39, 96036.34, -187500.02, -187500.02, 0.000, 0.000, 0.000, 18:57:55.483, 1577145475483
113, -187500.02, 90734.91, 96788.88, 102419.02, 104045.60, 95588.08, -187500.02, -187500.02, 0.000, 0.000, 0.000, 18:57:55.483, 1577145475483
114, -187500.02, 90955.15, 96944.72, 102576.16, 104397.82, 98333.79, -187500.02, -187500.02, 0.000, 0.000, 0.000, 18:57:55.483, 1577145475483
115, -187500.02, 90603.33, 96583.07, 102213.56, 104061.63, 98374.90, -187500.02, -187500.02, 0.000, 0.000, 0.000, 18:57:55.483, 1577145475483
116, -187500.02, 90387.84, 96413.87, 102039.06, 103751.12, 96366.16, -187500.02, -187500.02, 0.000, 0.000, 0.000, 18:57:55.483, 1577145475483
117, -187500.02, 90644.05, 96696.91, 102321.55, 103940.97, 95346.75, -187500.02, -187500.02, 0.000, 0.000, 0.000, 18:57:55.483, 1577145475483
118, -187500.02, 90956.58, 96963.05, 102590.26, 104390.02, 97934.70, -187500.02, -187500.02, 0.000, 0.000, 0.000, 18:57:55.483, 1577145475483
119, -187500.02, 90688.67, 96674.17, 102296.13, 104153.05, 98638.76, -187500.02, -187500.02, 0.194, 0.266, 0.982, 18:57:55.483, 1577145475483
120, -187500.02, 90420.60, 96433.91, 102055.24, 103787.84, 96774.35, -187500.02, -187500.02, 0.000, 0.000, 0.000, 18:57:55.483, 1577145475483
121, -187500.02, 90577.73, 96633.61, 102262.71, 103865.70, 95234.43, -187500.02, -187500.02, 0.000, 0.000, 0.000, 18:57:55.956, 1577145475956
122, -187500.02, 90944.98, 96966.83, 102591.77, 104346.92, 97412.79, -187500.02, -187500.02, 0.000, 0.000, 0.000, 18:57:55.956, 1577145475956
123, -187500.02, 90762.02, 96738.03, 102362.11, 104228.48, 98782.03, -187500.02, -187500.02, 0.000, 0.000, 0.000, 18:57:55.956, 1577145475956
124, -187500.02, 90424.02, 96426.56, 102052.88, 103821.30, 97145.57, -187500.02, -187500.02, 0.000, 0.000, 0.000, 18:57:55.956, 1577145475956
125, -187500.02, 90514.66, 96567.71, 102196.20, 103820.67, 95314.52, -187500.02, -187500.02, 0.000, 0.000, 0.000, 18:57:55.957, 1577145475957
126, -187500.02, 90918.20, 96955.65, 102581.18, 104304.26, 96917.09, -187500.02, -187500.02, 0.000, 0.000, 0.000, 18:57:55.957, 1577145475957
127, -187500.02, 90841.89, 96820.45, 102440.21, 104313.20, 98877.27, -187500.02, -187500.02, 0.000, 0.000, 0.000, 18:57:55.957, 1577145475957
128, -187500.02, 90476.44, 96475.09, 102098.59, 103893.88, 97531.38, -187500.02, -187500.02, 0.000, 0.000, 0.000, 18:57:55.957, 1577145475957
129, -187500.02, 90464.34, 96508.66, 102134.66, 103770.95, 95463.54, -187500.02, -187500.02, 0.196, 0.264, 0.986, 18:57:55.957, 1577145475957
130, -187500.02, 90857.38, 96899.39, 102524.16, 104207.85, 96358.92, -187500.02, -187500.02, 0.000, 0.000, 0.000, 18:57:55.957, 1577145475957
131, -187500.02, 90886.84, 96867.92, 102487.33, 104358.84, 98797.59, -187500.02, -187500.02, 0.000, 0.000, 0.000, 18:57:55.957, 1577145475957
132, -187500.02, 90501.00, 96491.88, 102111.41, 103929.38, 97844.00, -187500.02, -187500.02, 0.000, 0.000, 0.000, 18:57:55.957, 1577145475957
133, -187500.02, 90424.43, 96466.17, 102090.05, 103742.49, 95722.15, -187500.02, -187500.02, 0.000, 0.000, 0.000, 18:57:55.957, 1577145475957
134, -187500.02, 90784.96, 96836.23, 102461.35, 104114.34, 95897.98, -187500.02, -187500.02, 0.000, 0.000, 0.000, 18:57:55.957, 1577145475957
135, -187500.02, 90922.83, 96905.88, 102528.55, 104374.10, 98601.95, -187500.02, -187500.02, 0.000, 0.000, 0.000, 18:57:55.957, 1577145475957
136, -187500.02, 90553.17, 96530.68, 102158.00, 103994.70, 98151.52, -187500.02, -187500.02, 0.000, 0.000, 0.000, 18:57:55.957, 1577145475957
137, -187500.02, 90385.34, 96412.95, 102039.09, 103739.72, 96052.06, -187500.02, -187500.02, 0.000, 0.000, 0.000, 18:57:55.957, 1577145475957
138, -187500.02, 90707.24, 96762.87, 102387.13, 104024.45, 95541.10, -187500.02, -187500.02, 0.000, 0.000, 0.000, 18:57:55.958, 1577145475958
139, -187500.02, 90963.28, 96963.52, 102583.62, 104414.07, 98308.63, -187500.02, -187500.02, 0.194, 0.268, 0.988, 18:57:55.958, 1577145475958
140, -187500.02, 90643.95, 96629.45, 102250.71, 104107.25, 98463.70, -187500.02, -187500.02, 0.000, 0.000, 0.000, 18:57:55.958, 1577145475958
141, -187500.02, 90418.84, 96443.37, 102066.48, 103781.18, 96440.98, -187500.02, -187500.02, 0.000, 0.000, 0.000, 18:57:55.958, 1577145475958
142, -187500.02, 90649.77, 96706.52, 102329.97, 103945.78, 95303.03, -187500.02, -187500.02, 0.000, 0.000, 0.000, 18:57:55.958, 1577145475958
143, -187500.02, 90981.90, 96981.73, 102604.27, 104406.29, 97876.74, -187500.02, -187500.02, 0.000, 0.000, 0.000, 18:57:55.958, 1577145475958
144, -187500.02, 90704.52, 96677.10, 102297.47, 104179.22, 98698.04, -187500.02, -187500.02, 0.000, 0.000, 0.000, 18:57:55.958, 1577145475958
145, -187500.02, 90411.53, 96414.78, 102035.22, 103787.88, 96829.81, -187500.02, -187500.02, 0.000, 0.000, 0.000, 18:57:55.958, 1577145475958
146, -187500.02, 90572.35, 96619.73, 102242.53, 103857.34, 95243.41, -187500.02, -187500.02, 0.000, 0.000, 0.000, 18:57:55.958, 1577145475958
147, -187500.02, 90961.09, 96971.27, 102595.04, 104352.94, 97362.81, -187500.02, -187500.02, 0.000, 0.000, 0.000, 18:57:55.958, 1577145475958
148, -187500.02, 90770.01, 96745.52, 102370.49, 104257.12, 98804.97, -187500.02, -187500.02, 0.000, 0.000, 0.000, 18:57:55.958, 1577145475958
149, -187500.02, 90434.30, 96440.47, 102063.07, 103848.86, 97211.66, -187500.02, -187500.02, 0.196, 0.264, 0.986, 18:57:55.958, 1577145475958
150, -187500.02, 90513.66, 96562.88, 102185.87, 103825.34, 95336.34, -187500.02, -187500.02, 0.000, 0.000, 0.000, 18:57:55.958, 1577145475958
151, -187500.02, 90919.43, 96939.20, 102564.41, 104298.91, 96845.91, -187500.02, -187500.02, 0.000, 0.000, 0.000, 18:57:55.958, 1577145475958
152, -187500.02, 90841.89, 96812.80, 102434.76, 104322.88, 98865.25, -187500.02, -187500.02, 0.000, 0.000, 0.000, 18:57:55.958, 1577145475958
153, -187500.02, 90466.89, 96458.62, 102075.25, 103885.43, 97559.41, -187500.02, -187500.02, 0.000, 0.000, 0.000, 18:57:55.958, 1577145475958
154, -187500.02, 90465.62, 96502.23, 102119.55, 103766.49, 95493.98, -187500.02, -187500.02, 0.000, 0.000, 0.000, 18:57:55.958, 1577145475958
155, -187500.02, 90872.42, 96905.85, 102522.53, 104216.52, 96312.61, -187500.02, -187500.02, 0.000, 0.000, 0.000, 18:57:55.958, 1577145475958
156, -187500.02, 90908.52, 96884.23, 102501.48, 104381.55, 98800.48, -187500.02, -187500.02, 0.000, 0.000, 0.000, 18:57:55.958, 1577145475958
157, -187500.02, 90521.30, 96501.66, 102120.00, 103959.50, 97904.73, -187500.02, -187500.02, 0.000, 0.000, 0.000, 18:57:55.958, 1577145475958
158, -187500.02, 90424.25, 96449.23, 102067.63, 103750.29, 95771.34, -187500.02, -187500.02, 0.000, 0.000, 0.000, 18:57:55.958, 1577145475958
159, -187500.02, 90791.84, 96835.76, 102450.67, 104111.59, 95845.46, -187500.02, -187500.02, 0.200, 0.270, 0.982, 18:57:55.958, 1577145475958
160, -187500.02, 90955.80, 96940.81, 102553.71, 104411.16, 98591.93, -187500.02, -187500.02, 0.000, 0.000, 0.000, 18:57:55.958, 1577145475958
161, -187500.02, 90585.29, 96564.07, 102177.84, 104034.80, 98229.55, -187500.02, -187500.02, 0.000, 0.000, 0.000, 18:57:55.958, 1577145475958
162, -187500.02, 90410.45, 96436.40, 102051.76, 103753.73, 96115.31, -187500.02, -187500.02, 0.000, 0.000, 0.000, 18:57:55.958, 1577145475958
163, -187500.02, 90705.41, 96761.28, 102376.26, 104011.02, 95487.12, -187500.02, -187500.02, 0.000, 0.000, 0.000, 18:57:55.958, 1577145475958
164, -187500.02, 90970.73, 96966.45, 102579.44, 104410.02, 98251.18, -187500.02, -187500.02, 0.000, 0.000, 0.000, 18:57:55.958, 1577145475958
165, -187500.02, 90643.16, 96615.28, 102228.29, 104103.45, 98483.37, -187500.02, -187500.02, 0.000, 0.000, 0.000, 18:57:55.958, 1577145475958
166, -187500.02, 90411.77, 96424.73, 102038.70, 103780.24, 96504.81, -187500.02, -187500.02, 0.000, 0.000, 0.000, 18:57:55.958, 1577145475958
167, -187500.02, 90634.38, 96683.45, 102295.39, 103932.39, 95308.70, -187500.02, -187500.02, 0.000, 0.000, 0.000, 18:57:55.958, 1577145475958
168, -187500.02, 90968.18, 96969.02, 102580.82, 104390.31, 97823.32, -187500.02, -187500.02, 0.000, 0.000, 0.000, 18:57:55.958, 1577145475958
169, -187500.02, 90703.63, 96671.65, 102279.97, 104171.15, 98700.12, -187500.02, -187500.02, 0.198, 0.266, 0.988, 18:57:55.958, 1577145475958
170, -187500.02, 90412.85, 96416.15, 102026.70, 103793.70, 96870.85, -187500.02, -187500.02, 0.000, 0.000, 0.000, 18:57:55.959, 1577145475959
171, -187500.02, 90568.17, 96620.44, 102234.93, 103867.73, 95248.36, -187500.02, -187500.02, 0.000, 0.000, 0.000, 18:57:55.959, 1577145475959
172, -187500.02, 90962.92, 96982.52, 102593.03, 104364.16, 97317.55, -187500.02, -187500.02, 0.000, 0.000, 0.000, 18:57:55.959, 1577145475959
173, -187500.02, 90786.52, 96755.98, 102364.64, 104263.13, 98832.73, -187500.02, -187500.02, 0.000, 0.000, 0.000, 18:57:55.959, 1577145475959
174, -187500.02, 90445.44, 96437.65, 102044.63, 103844.10, 97236.12, -187500.02, -187500.02, 0.000, 0.000, 0.000, 18:57:55.959, 1577145475959
175, -187500.02, 90505.32, 96549.23, 102155.94, 103801.50, 95309.42, -187500.02, -187500.02, 0.000, 0.000, 0.000, 18:57:55.959, 1577145475959
176, -187500.02, 90914.60, 96935.00, 102545.73, 104279.58, 96760.90, -187500.02, -187500.02, 0.000, 0.000, 0.000, 18:57:55.959, 1577145475959
177, -187500.02, 90851.41, 96809.60, 102423.02, 104324.33, 98857.07, -187500.02, -187500.02, 0.000, 0.000, 0.000, 18:57:55.959, 1577145475959
178, -187500.02, 90481.29, 96463.58, 102073.13, 103895.58, 97602.47, -187500.02, -187500.02, 0.000, 0.000, 0.000, 18:57:55.959, 1577145475959
179, -187500.02, 90483.97, 96526.43, 102132.88, 103791.71, 95542.17, -187500.02, -187500.02, 0.198, 0.268, 0.986, 18:57:55.959, 1577145475959
180, -187500.02, 90877.79, 96909.18, 102520.16, 104213.82, 96253.49, -187500.02, -187500.02, 0.000, 0.000, 0.000, 18:57:55.959, 1577145475959
181, -187500.02, 90930.09, 96899.26, 102514.26, 104399.61, 98780.70, -187500.02, -187500.02, 0.000, 0.000, 0.000, 18:57:55.959, 1577145475959
182, -187500.02, 90547.49, 96525.18, 102140.02, 103993.12, 97976.16, -187500.02, -187500.02, 0.000, 0.000, 0.000, 18:57:55.959, 1577145475959
183, -187500.02, 90443.85, 96473.61, 102089.06, 103774.01, 95831.73, -187500.02, -187500.02, 0.000, 0.000, 0.000, 18:57:55.959, 1577145475959
184, -187500.02, 90787.33, 96824.31, 102441.95, 104105.98, 95796.04, -187500.02, -187500.02, 0.000, 0.000, 0.000, 18:57:55.959, 1577145475959
185, -187500.02, 90956.69, 96931.16, 102547.30, 104413.06, 98552.59, -187500.02, -187500.02, 0.000, 0.000, 0.000, 18:57:55.959, 1577145475959
186, -187500.02, 90586.39, 96549.95, 102167.43, 104044.66, 98258.65, -187500.02, -187500.02, 0.000, 0.000, 0.000, 18:57:55.959, 1577145475959
187, -187500.02, 90404.51, 96415.09, 102034.23, 103763.41, 96168.35, -187500.02, -187500.02, 0.000, 0.000, 0.000, 18:57:55.959, 1577145475959
188, -187500.02, 90705.37, 96746.28, 102367.34, 104022.96, 95482.11, -187500.02, -187500.02, 0.000, 0.000, 0.000, 18:57:55.959, 1577145475959
189, -187500.02, 90976.23, 96960.70, 102577.74, 104421.13, 98214.30, -187500.02, -187500.02, 0.198, 0.264, 0.990, 18:57:55.959, 1577145475959
190, -187500.02, 90657.80, 96621.73, 102237.61, 104121.02, 98512.54, -187500.02, -187500.02, 0.000, 0.000, 0.000, 18:57:55.959, 1577145475959
191, -187500.02, 90407.08, 96408.73, 102025.45, 103778.38, 96537.02, -187500.02, -187500.02, 0.000, 0.000, 0.000, 18:57:55.959, 1577145475959
192, -187500.02, 90620.43, 96658.06, 102276.23, 103916.92, 95269.26, -187500.02, -187500.02, 0.000, 0.000, 0.000, 18:57:55.959, 1577145475959
193, -187500.02, 90979.60, 96964.95, 102581.05, 104397.75, 97740.24, -187500.02, -187500.02, 0.000, 0.000, 0.000, 18:57:55.959, 1577145475959
194, -187500.02, 90724.86, 96683.88, 102299.73, 104203.78, 98707.83, -187500.02, -187500.02, 0.000, 0.000, 0.000, 18:57:55.959, 1577145475959
195, -187500.02, 90415.55, 96410.09, 102028.67, 103816.77, 96905.78, -187500.02, -187500.02, 0.000, 0.000, 0.000, 18:57:55.959, 1577145475959
196, -187500.02, 90553.64, 96584.77, 102204.66, 103860.64, 95245.66, -187500.02, -187500.02, 0.000, 0.000, 0.000, 18:57:55.959, 1577145475959
197, -187500.02, 90943.39, 96938.08, 102563.19, 104349.49, 97229.08, -187500.02, -187500.02, 0.000, 0.000, 0.000, 18:57:55.959, 1577145475959
198, -187500.02, 90778.81, 96738.37, 102352.73, 104257.79, 98815.85, -187500.02, -187500.02, 0.000, 0.000, 0.000, 18:57:55.959, 1577145475959
199, -187500.02, 90461.59, 96429.20, 102041.50, 103852.23, 97285.92, -187500.02, -187500.02, 0.194, 0.262, 0.984, 18:57:55.959, 1577145475959
200, -187500.02, 90516.41, 96540.49, 102158.51, 103805.70, 95343.60, -187500.02, -187500.02, 0.000, 0.000, 0.000, 18:57:55.959, 1577145475959
201, -187500.02, 90912.50, 96917.34, 102535.61, 104273.25, 96680.57, -187500.02, -187500.02, 0.000, 0.000, 0.000, 18:57:55.959, 1577145475959
202, -187500.02, 90866.86, 96815.10, 102434.51, 104350.81, 98859.93, -187500.02, -187500.02, 0.000, 0.000, 0.000, 18:57:55.960, 1577145475960
203, -187500.02, 90481.06, 96444.38, 102063.76, 103918.13, 97662.59, -187500.02, -187500.02, 0.000, 0.000, 0.000, 18:57:55.960, 1577145475960
204, -187500.02, 90455.45, 96476.59, 102096.64, 103780.02, 95562.94, -187500.02, -187500.02, 0.000, 0.000, 0.000, 18:57:55.960, 1577145475960
205, -187500.02, 90863.73, 96885.73, 102504.60, 104202.40, 96178.01, -187500.02, -187500.02, 0.000, 0.000, 0.000, 18:57:55.960, 1577145475960
206, -187500.02, 90937.94, 96892.87, 102509.09, 104408.37, 98757.09, -187500.02, -187500.02, 0.000, 0.000, 0.000, 18:57:55.960, 1577145475960
207, -187500.02, 90552.75, 96509.38, 102125.25, 103990.23, 97994.38, -187500.02, -187500.02, 0.000, 0.000, 0.000, 18:57:55.960, 1577145475960
208, -187500.02, 90441.73, 96445.83, 102066.38, 103760.84, 95841.35, -187500.02, -187500.02, 0.000, 0.000, 0.000, 18:57:55.960, 1577145475960
209, -187500.02, 90789.07, 96814.88, 102438.00, 104113.17, 95737.86, -187500.02, -187500.02, 0.194, 0.268, 0.986, 18:57:55.960, 1577145475960
210, -187500.02, 90975.06, 96934.28, 102551.09, 104440.40, 98521.10, -187500.02, -187500.02, 0.000, 0.000, 0.000, 18:57:55.960, 1577145475960
211, -187500.02, 90613.66, 96561.63, 102179.41, 104065.36, 98286.74, -187500.02, -187500.02, 0.000, 0.000, 0.000, 18:57:55.960, 1577145475960
212, -187500.02, 90419.69, 96416.13, 102035.66, 103774.63, 96210.91, -187500.02, -187500.02, 0.000, 0.000, 0.000, 18:57:55.960, 1577145475960
213, -187500.02, 90710.17, 96738.70, 102361.02, 104023.70, 95452.14, -187500.02, -187500.02, 0.000, 0.000, 0.000, 18:57:55.960, 1577145475960
214, -187500.02, 90997.37, 96964.01, 102584.36, 104439.35, 98159.27, -187500.02, -187500.02, 0.000, 0.000, 0.000, 18:57:55.960, 1577145475960
215, -187500.02, 90678.43, 96616.53, 102236.02, 104146.97, 98552.08, -187500.02, -187500.02, 0.000, 0.000, 0.000, 18:57:55.960, 1577145475960
216, -187500.02, 90426.39, 96403.92, 102024.69, 103801.30, 96605.76, -187500.02, -187500.02, 0.000, 0.000, 0.000, 18:57:55.960, 1577145475960
217, -187500.02, 90638.27, 96663.45, 102284.55, 103935.23, 95276.63, -187500.02, -187500.02, 0.000, 0.000, 0.000, 18:57:55.960, 1577145475960
218, -187500.02, 91009.62, 96981.69, 102602.95, 104415.39, 97685.10, -187500.02, -187500.02, 0.000, 0.000, 0.000, 18:57:55.960, 1577145475960
219, -187500.02, 90763.52, 96700.62, 102320.43, 104231.03, 98732.14, -187500.02, -187500.02, 0.198, 0.266, 0.984, 18:57:55.960, 1577145475960
220, -187500.02, 90451.77, 96420.80, 102040.00, 103834.09, 96966.85, -187500.02, -187500.02, 0.000, 0.000, 0.000, 18:57:55.961, 1577145475961
221, -187500.02, 90582.88, 96601.53, 102222.77, 103872.91, 95263.35, -187500.02, -187500.02, 0.000, 0.000, 0.000, 18:57:55.961, 1577145475961
222, -187500.02, 90992.74, 96962.65, 102582.30, 104362.48, 97170.59, -187500.02, -187500.02, 0.000, 0.000, 0.000, 18:57:55.961, 1577145475961
223, -187500.02, 90851.41, 96778.63, 102398.28, 104307.88, 98863.88, -187500.02, -187500.02, 0.000, 0.000, 0.000, 18:57:55.961, 1577145475961
224, -187500.02, 90489.42, 96448.76, 102069.86, 103880.94, 97353.91, -187500.02, -187500.02, 0.000, 0.000, 0.000, 18:57:55.961, 1577145475961
225, -187500.02, 90522.64, 96523.45, 102148.27, 103817.86, 95376.92, -187500.02, -187500.02, 0.000, 0.000, 0.000, 18:57:55.961, 1577145475961
226, -187500.02, 90937.48, 96927.29, 102550.88, 104285.15, 96629.36, -187500.02, -187500.02, 0.000, 0.000, 0.000, 18:57:55.961, 1577145475961
227, -187500.02, 90911.90, 96849.68, 102474.79, 104371.91, 98858.99, -187500.02, -187500.02, 0.000, 0.000, 0.000, 18:57:55.961, 1577145475961
228, -187500.02, 90527.40, 96486.29, 102109.27, 103958.30, 97714.36, -187500.02, -187500.02, 0.000, 0.000, 0.000, 18:57:55.961, 1577145475961
229, -187500.02, 90481.96, 96482.09, 102106.07, 103792.76, 95597.58, -187500.02, -187500.02, 0.198, 0.264, 0.980, 18:57:55.961, 1577145475961
230, -187500.02, 90872.87, 96874.24, 102499.60, 104209.08, 96120.48, -187500.02, -187500.02, 0.000, 0.000, 0.000, 18:57:55.961, 1577145475961
231, -187500.02, 90971.51, 96908.94, 102532.23, 104432.27, 98755.73, -187500.02, -187500.02, 0.000, 0.000, 0.000, 18:57:55.961, 1577145475961
232, -187500.02, 90582.66, 96521.16, 102144.83, 104019.78, 98060.19, -187500.02, -187500.02, 0.000, 0.000, 0.000, 18:57:55.961, 1577145475961
233, -187500.02, 90447.25, 96432.17, 102052.74, 103767.45, 95914.46, -187500.02, -187500.02, 0.000, 0.000, 0.000, 18:57:55.961, 1577145475961
234, -187500.02, 90792.52, 96798.54, 102420.67, 104094.62, 95696.82, -187500.02, -187500.02, 0.000, 0.000, 0.000, 18:57:55.961, 1577145475961
235, -187500.02, 90993.75, 96938.57, 102558.54, 104429.23, 98461.87, -187500.02, -187500.02, 0.000, 0.000, 0.000, 18:57:55.961, 1577145475961
236, -187500.02, 90632.03, 96565.19, 102185.60, 104071.41, 98316.11, -187500.02, -187500.02, 0.000, 0.000, 0.000, 18:57:55.961, 1577145475961
237, -187500.02, 90437.84, 96418.31, 102038.93, 103784.27, 96277.03, -187500.02, -187500.02, 0.000, 0.000, 0.000, 18:57:55.961, 1577145475961
238, -187500.02, 90717.81, 96729.38, 102351.77, 104009.16, 95416.30, -187500.02, -187500.02, 0.000, 0.000, 0.000, 18:57:55.961, 1577145475961
239, -187500.02, 91010.63, 96966.63, 102584.58, 104431.91, 98095.08, -187500.02, -187500.02, 0.202, 0.264, 0.976, 18:57:55.961, 1577145475961
240, -187500.02, 90702.34, 96635.66, 102253.57, 104159.26, 98590.26, -187500.02, -187500.02, 0.000, 0.000, 0.000, 18:57:55.961, 1577145475961
241, -187500.02, 90440.20, 96416.91, 102036.29, 103817.68, 96661.21, -187500.02, -187500.02, 0.000, 0.000, 0.000, 18:57:56.436, 1577145476436
242, -187500.02, 90652.62, 96670.29, 102285.34, 103938.58, 95274.87, -187500.02, -187500.02, 0.000, 0.000, 0.000, 18:57:56.436, 1577145476436
243, -187500.02, 91020.84, 96991.28, 102603.60, 104411.50, 97619.38, -187500.02, -187500.02, 0.000, 0.000, 0.000, 18:57:56.436, 1577145476436
244, -187500.02, 90784.27, 96718.77, 102331.40, 104250.45, 98769.47, -187500.02, -187500.02, 0.000, 0.000, 0.000, 18:57:56.436, 1577145476436
245, -187500.02, 90441.37, 96410.47, 102024.67, 103837.48, 97036.70, -187500.02, -187500.02, 0.000, 0.000, 0.000, 18:57:56.436, 1577145476436
246, -187500.02, 90559.19, 96569.66, 102185.22, 103857.34, 95266.66, -187500.02, -187500.02, 0.000, 0.000, 0.000, 18:57:56.436, 1577145476436
247, -187500.02, 90992.07, 96984.30, 102593.12, 104373.37, 97111.33, -187500.02, -187500.02, 0.000, 0.000, 0.000, 18:57:56.436, 1577145476436
248, -187500.02, 90858.48, 96800.88, 102406.64, 104314.52, 98865.20, -187500.02, -187500.02, 0.000, 0.000, 0.000, 18:57:56.437, 1577145476437
249, -187500.02, 90487.62, 96452.83, 102061.55, 103888.70, 97403.87, -187500.02, -187500.02, 0.196, 0.270, 0.982, 18:57:56.437, 1577145476437
250, -187500.02, 90508.67, 96520.33, 102132.47, 103808.27, 95405.06, -187500.02, -187500.02, 0.000, 0.000, 0.000, 18:57:56.437, 1577145476437
251, -187500.02, 90935.56, 96939.83, 102553.63, 104294.45, 96577.19, -187500.02, -187500.02, 0.000, 0.000, 0.000, 18:57:56.437, 1577145476437
252, -187500.02, 90923.18, 96863.43, 102472.44, 104381.46, 98856.13, -187500.02, -187500.02, 0.000, 0.000, 0.000, 18:57:56.437, 1577145476437
253, -187500.02, 90534.51, 96490.51, 102097.84, 103948.10, 97736.13, -187500.02, -187500.02, 0.000, 0.000, 0.000, 18:57:56.437, 1577145476437
254, -187500.02, 90478.47, 96487.20, 102096.88, 103795.62, 95630.55, -187500.02, -187500.02, 0.000, 0.000, 0.000, 18:57:56.437, 1577145476437
255, -187500.02, 90867.51, 96872.32, 102485.43, 104200.74, 96081.92, -187500.02, -187500.02, 0.000, 0.000, 0.000, 18:57:56.437, 1577145476437
0, -187500.02, 90966.66, 96906.63, 102517.23, 104425.73, 98717.02, -187500.02, -187500.02, 0.000, 0.000, 0.000, 18:57:56.437, 1577145476437
1, -187500.02, 90585.41, 96530.12, 102138.17, 104011.36, 98068.79, -187500.02, -187500.02, 0.000, 0.000, 0.000, 18:57:56.437, 1577145476437
2, -187500.02, 90452.27, 96449.25, 102061.03, 103784.00, 95964.71, -187500.02, -187500.02, 0.000, 0.000, 0.000, 18:57:56.437, 1577145476437
3, -187500.02, 90797.23, 96816.53, 102426.30, 104104.52, 95670.94, -187500.02, -187500.02, 0.000, 0.000, 0.000, 18:57:56.437, 1577145476437
4, -187500.02, 91010.49, 96956.23, 102568.04, 104452.76, 98445.70, -187500.02, -187500.02, 0.198, 0.268, 0.984, 18:57:56.437, 1577145476437
5, -187500.02, 90637.98, 96577.95, 102191.95, 104096.67, 98367.99, -187500.02, -187500.02, 0.000, 0.000, 0.000, 18:57:56.437, 1577145476437
6, -187500.02, 90456.92, 96448.55, 102049.21, 103804.65, 96332.91, -187500.02, -187500.02, 0.000, 0.000, 0.000, 18:57:56.437, 1577145476437
7, -187500.02, 90729.05, 96738.01, 102337.08, 104002.59, 95395.05, -187500.02, -187500.02, 0.000, 0.000, 0.000, 18:57:56.437, 1577145476437
8, -187500.02, 91017.64, 96979.25, 102576.13, 104427.70, 98021.76, -187500.02, -187500.02, 0.000, 0.000, 0.000, 18:57:56.437, 1577145476437
9, -187500.02, 90722.76, 96661.97, 102257.51, 104173.23, 98592.34, -187500.02, -187500.02, 0.000, 0.000, 0.000, 18:57:56.437, 1577145476437
10, -187500.02, 90453.88, 96435.15, 102034.86, 103828.41, 96700.04, -187500.02, -187500.02, 0.000, 0.000, 0.000, 18:57:56.437, 1577145476437
11, -187500.02, 90643.34, 96671.63, 102269.38, 103942.85, 95279.74, -187500.02, -187500.02, 0.000, 0.000, 0.000, 18:57:56.437, 1577145476437
12, -187500.02, 91034.23, 97015.76, 102608.34, 104431.50, 97589.75, -187500.02, -187500.02, 0.000, 0.000, 0.000, 18:57:56.437, 1577145476437
13, -187500.02, 90803.06, 96736.76, 102329.61, 104257.43, 98803.76, -187500.02, -187500.02, 0.000, 0.000, 0.000, 18:57:56.437, 1577145476437
14, -187500.02, 90468.73, 96429.53, 102022.59, 103830.98, 97062.63, -187500.02, -187500.02, 0.198, 0.264, 0.978, 18:57:56.437, 1577145476437
15, -187500.02, 90585.38, 96596.86, 102191.39, 103846.23, 95256.91, -187500.02, -187500.02, 0.000, 0.000, 0.000, 18:57:56.437, 1577145476437
16, -187500.02, 90987.18, 96968.80, 102565.60, 104363.73, 97033.86, -187500.02, -187500.02, 0.000, 0.000, 0.000, 18:57:56.438, 1577145476438
17, -187500.02, 90875.40, 96809.94, 102404.58, 104346.12, 98884.63, -187500.02, -187500.02, 0.000, 0.000, 0.000, 18:57:56.438, 1577145476438
18, -187500.02, 90519.94, 96481.15, 102076.62, 103926.73, 97457.47, -187500.02, -187500.02, 0.000, 0.000, 0.000, 18:57:56.438, 1577145476438
19, -187500.02, 90541.93, 96555.48, 102150.89, 103836.23, 95434.66, -187500.02, -187500.02, 0.000, 0.000, 0.000, 18:57:56.438, 1577145476438
20, -187500.02, 90942.07, 96936.95, 102534.69, 104282.09, 96488.34, -187500.02, -187500.02, 0.000, 0.000, 0.000, 18:57:56.438, 1577145476438
21, -187500.02, 90930.60, 96868.63, 102465.16, 104404.46, 98846.92, -187500.02, -187500.02, 0.000, 0.000, 0.000, 18:57:56.438, 1577145476438
22, -187500.02, 90547.38, 96496.39, 102093.27, 103973.30, 97796.92, -187500.02, -187500.02, 0.000, 0.000, 0.000, 18:57:56.438, 1577145476438
23, -187500.02, 90490.45, 96491.13, 102088.70, 103799.80, 95674.59, -187500.02, -187500.02, 0.000, 0.000, 0.000, 18:57:56.439, 1577145476439
24, -187500.02, 90887.51, 96892.51, 102492.40, 104200.23, 96016.85, -187500.02, -187500.02, 0.196, 0.266, 0.982, 18:57:56.439, 1577145476439
25, -187500.02, 91009.08, 96947.89, 102545.80, 104456.70, 98701.68, -187500.02, -187500.02, 0.000, 0.000, 0.000, 18:57:56.439, 1577145476439
26, -187500.02, 90617.52, 96549.77, 102149.01, 104041.06, 98124.73, -187500.02, -187500.02, 0.000, 0.000, 0.000, 18:57:56.439, 1577145476439
27, -187500.02, 90463.38, 96441.23, 102043.63, 103778.25, 95987.40, -187500.02, -187500.02, 0.000, 0.000, 0.000, 18:57:56.439, 1577145476439
28, -187500.02, 90794.13, 96796.46, 102401.52, 104090.59, 95599.39, -187500.02, -187500.02, 0.000, 0.000, 0.000, 18:57:56.439, 1577145476439
29, -187500.02, 91027.56, 96973.91, 102579.82, 104468.20, 98388.09, -187500.02, -187500.02, 0.000, 0.000, 0.000, 18:57:56.439, 1577145476439
30, -187500.02, 90674.72, 96603.09, 102204.22, 104117.15, 98398.34, -187500.02, -187500.02, 0.000, 0.000, 0.000, 18:57:56.439, 1577145476439
31, -187500.02, 90452.45, 96418.54, 102021.92, 103798.34, 96362.63, -187500.02, -187500.02, 0.000, 0.000, 0.000, 18:57:56.439, 1577145476439
32, -187500.02, 90722.22, 96726.21, 102329.13, 104005.73, 95345.25, -187500.02, -187500.02, 0.000, 0.000, 0.000, 18:57:56.439, 1577145476439
33, -187500.02, 91050.12, 96997.20, 102595.91, 104459.60, 98002.02, -187500.02, -187500.02, 0.000, 0.000, 0.000, 18:57:56.439, 1577145476439
34, -187500.02, 90755.77, 96674.53, 102269.94, 104198.62, 98652.17, -187500.02, -187500.02, 0.196, 0.276, 0.982, 18:57:56.439, 1577145476439
35, -187500.02, 90468.55, 96426.88, 102023.87, 103826.24, 96746.70, -187500.02, -187500.02, 0.000, 0.000, 0.000, 18:57:56.439, 1577145476439
36, -187500.02, 90644.10, 96649.12, 102245.46, 103916.12, 95255.53, -187500.02, -187500.02, 0.000, 0.000, 0.000, 18:57:56.439, 1577145476439
37, -187500.02, 91035.37, 96994.37, 102591.22, 104417.42, 97507.78, -187500.02, -187500.02, 0.000, 0.000, 0.000, 18:57:56.439, 1577145476439
38, -187500.02, 90837.77, 96754.57, 102352.73, 104295.59, 98832.46, -187500.02, -187500.02, 0.000, 0.000, 0.000, 18:57:56.439, 1577145476439
39, -187500.02, 90488.30, 96438.79, 102038.21, 103872.33, 97138.87, -187500.02, -187500.02, 0.000, 0.000, 0.000, 18:57:56.439, 1577145476439
40, -187500.02, 90575.14, 96581.44, 102180.62, 103853.22, 95275.76, -187500.02, -187500.02, 0.000, 0.000, 0.000, 18:57:56.439, 1577145476439
41, -187500.02, 90990.87, 96966.06, 102565.55, 104345.56, 96947.58, -187500.02, -187500.02, 0.000, 0.000, 0.000, 18:57:56.439, 1577145476439
42, -187500.02, 90887.82, 96802.90, 102402.57, 104339.03, 98866.70, -187500.02, -187500.02, 0.000, 0.000, 0.000, 18:57:56.439, 1577145476439
43, -187500.02, 90522.84, 96460.88, 102064.05, 103925.35, 97489.63, -187500.02, -187500.02, 0.000, 0.000, 0.000, 18:57:56.439, 1577145476439
44, -187500.02, 90533.26, 96526.72, 102130.59, 103829.48, 95452.54, -187500.02, -187500.02, 0.194, 0.272, 0.984, 18:57:56.439, 1577145476439
45, -187500.02, 90946.63, 96931.76, 102537.87, 104287.05, 96430.70, -187500.02, -187500.02, 0.000, 0.000, 0.000, 18:57:56.440, 1577145476440
46, -187500.02, 90971.09, 96897.78, 102498.81, 104428.38, 98845.06, -187500.02, -187500.02, 0.000, 0.000, 0.000, 18:57:56.440, 1577145476440
47, -187500.02, 90587.70, 96520.44, 102118.70, 103994.46, 97855.20, -187500.02, -187500.02, 0.000, 0.000, 0.000, 18:57:56.440, 1577145476440
48, -187500.02, 90506.73, 96485.41, 102086.09, 103798.19, 95711.98, -187500.02, -187500.02, 0.000, 0.000, 0.000, 18:57:56.440, 1577145476440
49, -187500.02, 90874.99, 96859.60, 102464.93, 104167.95, 95922.91, -187500.02, -187500.02, 0.000, 0.000, 0.000, 18:57:56.440, 1577145476440
50, -187500.02, 91019.34, 96948.25, 102553.84, 104472.88, 98654.63, -187500.02, -187500.02, 0.000, 0.000, 0.000, 18:57:56.440, 1577145476440
51, -187500.02, 90634.73, 96552.70, 102152.34, 104064.13, 98168.27, -187500.02, -187500.02, 0.000, 0.000, 0.000, 18:57:56.440, 1577145476440
52, -187500.02, 90485.00, 96451.66, 102050.84, 103801.70, 96038.60, -187500.02, -187500.02, 0.000, 0.000, 0.000, 18:57:56.440, 1577145476440
53, -187500.02, 90814.46, 96802.97, 102404.24, 104094.48, 95560.34, -187500.02, -187500.02, 0.000, 0.000, 0.000, 18:57:56.440, 1577145476440
54, -187500.02, 91049.63, 96976.30, 102577.77, 104467.24, 98347.43, -187500.02, -187500.02, 0.192, 0.268, 0.986, 18:57:56.440, 1577145476440
55, -187500.02, 90686.48, 96603.16, 102205.07, 104130.60, 98445.04, -187500.02, -187500.02, 0.000, 0.000, 0.000, 18:57:56.440, 1577145476440
56, -187500.02, 90470.09, 96430.07, 102029.48, 103814.87, 96428.10, -187500.02, -187500.02, 0.000, 0.000, 0.000, 18:57:56.440, 1577145476440
57, -187500.02, 90724.43, 96715.91, 102310.39, 103993.09, 95348.42, -187500.02, -187500.02, 0.000, 0.000, 0.000, 18:57:56.440, 1577145476440
58, -187500.02, 91057.88, 96988.77, 102585.54, 104439.38, 97925.18, -187500.02, -187500.02, 0.000, 0.000, 0.000, 18:57:56.440, 1577145476440
59, -187500.02, 90768.09, 96677.02, 102272.39, 104202.76, 98660.84, -187500.02, -187500.02, 0.000, 0.000, 0.000, 18:57:56.440, 1577145476440
60, -187500.02, 90476.13, 96425.11, 102020.82, 103834.82, 96800.84, -187500.02, -187500.02, 0.000, 0.000, 0.000, 18:57:56.440, 1577145476440
61, -187500.02, 90650.38, 96640.91, 102239.85, 103921.30, 95253.70, -187500.02, -187500.02, 0.000, 0.000, 0.000, 18:57:56.440, 1577145476440
62, -187500.02, 91041.73, 96992.33, 102590.39, 104415.23, 97423.78, -187500.02, -187500.02, 0.000, 0.000, 0.000, 18:57:56.440, 1577145476440
63, -187500.02, 90850.43, 96760.72, 102354.67, 104294.69, 98826.88, -187500.02, -187500.02, 0.000, 0.000, 0.000, 18:57:56.441, 1577145476441
64, -187500.02, 90511.04, 96442.66, 102039.64, 103882.77, 97189.12, -187500.02, -187500.02, 0.194, 0.270, 0.988, 18:57:56.441, 1577145476441
65, -187500.02, 90594.97, 96581.02, 102180.86, 103874.05, 95314.12, -187500.02, -187500.02, 0.000, 0.000, 0.000, 18:57:56.441, 1577145476441
66, -187500.02, 91021.53, 96983.30, 102576.76, 104360.83, 96890.30, -187500.02, -187500.02, 0.000, 0.000, 0.000, 18:57:56.441, 1577145476441
67, -187500.02, 90924.62, 96824.71, 102417.34, 104360.91, 98879.35, -187500.02, -187500.02, 0.000, 0.000, 0.000, 18:57:56.441, 1577145476441
68, -187500.02, 90545.93, 96467.02, 102060.92, 103926.33, 97541.16, -187500.02, -187500.02, 0.000, 0.000, 0.000, 18:57:56.441, 1577145476441
69, -187500.02, 90543.23, 96518.65, 102114.45, 103822.06, 95489.78, -187500.02, -187500.02, 0.000, 0.000, 0.000, 18:57:56.441, 1577145476441
70, -187500.02, 90956.66, 96924.42, 102519.47, 104266.13, 96361.56, -187500.02, -187500.02, 0.000, 0.000, 0.000, 18:57:56.441, 1577145476441
71, -187500.02, 90978.48, 96889.83, 102481.13, 104423.23, 98809.48, -187500.02, -187500.02, 0.000, 0.000, 0.000, 18:57:56.441, 1577145476441
72, -187500.02, 90595.93, 96520.13, 102108.87, 104000.14, 97890.53, -187500.02, -187500.02, 0.000, 0.000, 0.000, 18:57:56.441, 1577145476441
73, -187500.02, 90518.44, 96488.59, 102080.50, 103812.23, 95774.02, -187500.02, -187500.02, 0.000, 0.000, 0.000, 18:57:56.441, 1577145476441
74, -187500.02, 90888.74, 96868.59, 102464.62, 104189.23, 95897.66, -187500.02, -187500.02, 0.192, 0.268, 0.984, 18:57:56.441, 1577145476441
75, -187500.02, 91043.91, 96966.00, 102556.95, 104487.27, 98641.24, -187500.02, -187500.02, 0.000, 0.000, 0.000, 18:57:56.441, 1577145476441
76, -187500.02, 90672.15, 96586.89, 102170.00, 104084.94, 98216.71, -187500.02, -187500.02, 0.000, 0.000, 0.000, 18:57:56.441, 1577145476441
77, -187500.02, 90491.64, 96444.51, 102031.09, 103791.13, 96105.08, -187500.02, -187500.02, 0.000, 0.000, 0.000, 18:57:56.441, 1577145476441
78, -187500.02, 90813.88, 96797.16, 102386.63, 104079.82, 95543.91, -187500.02, -187500.02, 0.000, 0.000, 0.000, 18:57:56.441, 1577145476441
79, -187500.02, 91064.49, 96992.66, 102579.59, 104470.75, 98304.16, -187500.02, -187500.02, 0.000, 0.000, 0.000, 18:57:56.441, 1577145476441
80, -187500.02, 90733.39, 96646.37, 102233.27, 104159.82, 98488.69, -187500.02, -187500.02, 0.000, 0.000, 0.000, 18:57:56.441, 1577145476441
81, -187500.02, 90493.41, 96447.53, 102038.46, 103844.62, 96501.38, -187500.02, -187500.02, 0.000, 0.000, 0.000, 18:57:56.441, 1577145476441
82, -187500.02, 90730.84, 96717.41, 102310.08, 104018.35, 95353.70, -187500.02, -187500.02, 0.000, 0.000, 0.000, 18:57:56.441, 1577145476441
83, -187500.02, 91081.34, 97020.96, 102612.12, 104483.65, 97884.34, -187500.02, -187500.02, 0.000, 0.000, 0.000, 18:57:56.441, 1577145476441
84, -187500.02, 90791.06, 96699.50, 102289.31, 104237.67, 98705.61, -187500.02, -187500.02, 0.194, 0.268, 0.980, 18:57:56.441, 1577145476441
85, -187500.02, 90486.56, 96425.51, 102012.60, 103838.84, 96852.63, -187500.02, -187500.02, 0.000, 0.000, 0.000, 18:57:56.441, 1577145476441
86, -187500.02, 90643.49, 96625.18, 102216.54, 103912.61, 95255.27, -187500.02, -187500.02, 0.000, 0.000, 0.000, 18:57:56.441, 1577145476441
87, -187500.02, 91046.45, 96996.64, 102592.67, 104438.12, 97377.85, -187500.02, -187500.02, 0.000, 0.000, 0.000, 18:57:56.441, 1577145476441
88, -187500.02, 90872.76, 96775.02, 102365.04, 104327.21, 98864.69, -187500.02, -187500.02, 0.000, 0.000, 0.000, 18:57:56.442, 1577145476442
89, -187500.02, 90526.59, 96452.00, 102043.63, 103906.87, 97247.41, -187500.02, -187500.02, 0.000, 0.000, 0.000, 18:57:56.442, 1577145476442
90, -187500.02, 90589.25, 96568.27, 102162.51, 103869.40, 95334.66, -187500.02, -187500.02, 0.000, 0.000, 0.000, 18:57:56.442, 1577145476442
91, -187500.02, 91019.77, 96979.25, 102574.74, 104362.48, 96820.00, -187500.02, -187500.02, 0.000, 0.000, 0.000, 18:57:56.442, 1577145476442
92, -187500.02, 90960.51, 96861.10, 102457.48, 104410.23, 98904.37, -187500.02, -187500.02, 0.000, 0.000, 0.000, 18:57:56.442, 1577145476442
93, -187500.02, 90572.71, 96491.47, 102085.15, 103970.61, 97619.38, -187500.02, -187500.02, 0.000, 0.000, 0.000, 18:57:56.442, 1577145476442
94, -187500.02, 90555.36, 96526.05, 102121.16, 103846.85, 95535.94, -187500.02, -187500.02, 0.194, 0.268, 0.980, 18:57:56.442, 1577145476442
95, -187500.02, 90957.52, 96924.24, 102518.80, 104281.57, 96298.53, -187500.02, -187500.02, 0.000, 0.000, 0.000, 18:57:56.442, 1577145476442
96, -187500.02, 91000.01, 96905.63, 102497.61, 104448.76, 98804.79, -187500.02, -187500.02, 0.000, 0.000, 0.000, 18:57:56.442, 1577145476442
97, -187500.02, 90605.32, 96520.88, 102111.88, 104020.32, 97944.89, -187500.02, -187500.02, 0.000, 0.000, 0.000, 18:57:56.442, 1577145476442
98, -187500.02, 90501.41, 96466.80, 102061.84, 103807.96, 95798.14, -187500.02, -187500.02, 0.000, 0.000, 0.000, 18:57:56.442, 1577145476442
99, -187500.02, 90856.95, 96838.30, 102433.99, 104172.07, 95817.19, -187500.02, -187500.02, 0.000, 0.000, 0.000, 18:57:56.442, 1577145476442
100, -187500.02, 91035.79, 96951.54, 102535.79, 104473.30, 98573.36, -187500.02, -187500.02, 0.000, 0.000, 0.000, 18:57:56.442, 1577145476442
101, -187500.02, 90657.69, 96569.88, 102157.15, 104095.83, 98263.38, -187500.02, -187500.02, 0.000, 0.000, 0.000, 18:57:56.442, 1577145476442
102, -187500.02, 90476.46, 96437.45, 102025.07, 103811.66, 96157.16, -187500.02, -187500.02, 0.000, 0.000, 0.000, 18:57:56.443, 1577145476443
103, -187500.02, 90778.03, 96763.90, 102353.73, 104074.95, 95497.69, -187500.02, -187500.02, 0.000, 0.000, 0.000, 18:57:56.443, 1577145476443
104, -187500.02, 91049.80, 96977.76, 102569.94, 104488.01, 98252.86, -187500.02, -187500.02, 0.194, 0.272, 0.982, 18:57:56.443, 1577145476443
105, -187500.02, 90716.01, 96637.38, 102225.84, 104187.02, 98527.23, -187500.02, -187500.02, 0.000, 0.000, 0.000, 18:57:56.917, 1577145476917
106, -187500.02, 90488.93, 96448.80, 102032.05, 103850.41, 96536.38, -187500.02, -187500.02, 0.000, 0.000, 0.000, 18:57:56.917, 1577145476917
107, -187500.02, 90720.74, 96713.05, 102297.90, 103993.52, 95291.83, -187500.02, -187500.02, 0.000, 0.000, 0.000, 18:57:56.917, 1577145476917
108, -187500.02, 91069.36, 97010.66, 102595.82, 104471.45, 97803.70, -187500.02, -187500.02, 0.000, 0.000, 0.000, 18:57:56.917, 1577145476917
109, -187500.02, 90810.17, 96722.88, 102308.13, 104276.70, 98741.15, -187500.02, -187500.02, 0.000, 0.000, 0.000, 18:57:56.917, 1577145476917
110, -187500.02, 90502.52, 96452.22, 102033.95, 103879.30, 96920.05, -187500.02, -187500.02, 0.000, 0.000, 0.000, 18:57:56.917, 1577145476917
111, -187500.02, 90646.09, 96646.30, 102228.12, 103938.18, 95264.16, -187500.02, -187500.02, 0.000, 0.000, 0.000, 18:57:56.917, 1577145476917
112, -187500.02, 91032.62, 96998.81, 102578.09, 104435.51, 97296.13, -187500.02, -187500.02, 0.000, 0.000, 0.000, 18:57:56.917, 1577145476917
113, -187500.02, 90863.08, 96788.95, 102363.34, 104349.48, 98878.73, -187500.02, -187500.02, 0.000, 0.000, 0.000, 18:57:56.918, 1577145476918
114, -187500.02, 90517.03, 96477.63, 102052.32, 103933.75, 97310.20, -187500.02, -187500.02, 0.196, 0.268, 0.986, 18:57:56.918, 1577145476918
115, -187500.02, 90570.12, 96578.06, 102150.53, 103878.05, 95346.15, -187500.02, -187500.02, 0.000, 0.000, 0.000, 18:57:56.918, 1577145476918
116, -187500.02, 90986.53, 96968.16, 102536.75, 104349.43, 96719.93, -187500.02, -187500.02, 0.000, 0.000, 0.000, 18:57:56.918, 1577145476918
117, -187500.02, 90927.30, 96851.13, 102418.13, 104402.16, 98880.00, -187500.02, -187500.02, 0.000, 0.000, 0.000, 18:57:56.918, 1577145476918
118, -187500.02, 90551.16, 96495.45, 102065.35, 103978.79, 97646.56, -187500.02, -187500.02, 0.000, 0.000, 0.000, 18:57:56.918, 1577145476918
119, -187500.02, 90539.31, 96545.02, 102116.89, 103863.93, 95563.83, -187500.02, -187500.02, 0.000, 0.000, 0.000, 18:57:56.918, 1577145476918
120, -187500.02, 90930.72, 96933.23, 102503.42, 104285.59, 96228.77, -187500.02, -187500.02, 0.000, 0.000, 0.000, 18:57:56.918, 1577145476918
121, -187500.02, 91009.70, 96949.33, 102515.53, 104483.09, 98788.09, -187500.02, -187500.02, 0.000, 0.000, 0.000, 18:57:56.918, 1577145476918
122, -187500.02, 90620.43, 96566.71, 102133.59, 104070.34, 98000.51, -187500.02, -187500.02, 0.000, 0.000, 0.000, 18:57:56.918, 1577145476918
123, -187500.02, 90514.34, 96515.03, 102084.17, 103855.59, 95874.98, -187500.02, -187500.02, 0.000, 0.000, 0.000, 18:57:56.918, 1577145476918
124, -187500.02, 90857.91, 96867.00, 102441.41, 104189.16, 95783.50, -187500.02, -187500.02, 0.200, 0.268, 0.984, 18:57:56.918, 1577145476918
125, -187500.02, 91015.98, 96962.94, 102533.48, 104487.49, 98524.61, -187500.02, -187500.02, 0.000, 0.000, 0.000, 18:57:56.918, 1577145476918
126, -187500.02, 90662.05, 96594.45, 102160.27, 104116.99, 98276.19, -187500.02, -187500.02, 0.000, 0.000, 0.000, 18:57:56.918, 1577145476918
127, -187500.02, 90478.05, 96453.43, 102023.44, 103825.19, 96191.09, -187500.02, -187500.02, 0.000, 0.000, 0.000, 18:57:56.918, 1577145476918
128, -187500.02, 90775.51, 96784.91, 102356.37, 104090.05, 95458.20, -187500.02, -187500.02, 0.000, 0.000, 0.000, 18:57:56.918, 1577145476918
129, -187500.02, 91047.84, 96994.68, 102565.96, 104501.24, 98193.58, -187500.02, -187500.02, 0.000, 0.000, 0.000, 18:57:56.918, 1577145476918
130, -187500.02, 90727.27, 96655.06, 102224.27, 104199.67, 98545.80, -187500.02, -187500.02, 0.000, 0.000, 0.000, 18:57:56.918, 1577145476918
131, -187500.02, 90483.93, 96458.59, 102028.45, 103861.38, 96576.20, -187500.02, -187500.02, 0.000, 0.000, 0.000, 18:57:56.918, 1577145476918
132, -187500.02, 90702.80, 96722.23, 102296.45, 104017.30, 95280.34, -187500.02, -187500.02, 0.000, 0.000, 0.000, 18:57:56.918, 1577145476918
133, -187500.02, 91064.40, 97031.36, 102607.02, 104506.72, 97746.01, -187500.02, -187500.02, 0.000, 0.000, 0.000, 18:57:56.918, 1577145476918
134, -187500.02, 90804.34, 96735.64, 102308.49, 104303.52, 98761.49, -187500.02, -187500.02, 0.200, 0.268, 0.982, 18:57:56.918, 1577145476918
135, -187500.02, 90480.84, 96449.96, 102024.04, 103902.64, 96969.02, -187500.02, -187500.02, 0.000, 0.000, 0.000, 18:57:56.918, 1577145476918
136, -187500.02, 90617.50, 96634.26, 102207.80, 103941.66, 95267.20, -187500.02, -187500.02, 0.000, 0.000, 0.000, 18:57:56.918, 1577145476918
137, -187500.02, 91032.10, 97009.34, 102588.60, 104449.99, 97217.03, -187500.02, -187500.02, 0.000, 0.000, 0.000, 18:57:56.919, 1577145476919
138, -187500.02, 90871.08, 96803.91, 102377.22, 104376.38, 98871.24, -187500.02, -187500.02, 0.000, 0.000, 0.000, 18:57:56.919, 1577145476919
139, -187500.02, 90516.31, 96469.14, 102039.29, 103936.77, 97331.85, -187500.02, -187500.02, 0.000, 0.000, 0.000, 18:57:56.919, 1577145476919
140, -187500.02, 90550.24, 96541.41, 102120.16, 103863.73, 95341.45, -187500.02, -187500.02, 0.000, 0.000, 0.000, 18:57:56.919, 1577145476919
141, -187500.02, 90962.84, 96941.16, 102520.70, 104353.54, 96647.29, -187500.02, -187500.02, 0.000, 0.000, 0.000, 18:57:56.919, 1577145476919
142, -187500.02, 90933.71, 96865.17, 102440.01, 104429.60, 98862.23, -187500.02, -187500.02, 0.000, 0.000, 0.000, 18:57:56.919, 1577145476919
143, -187500.02, 90553.58, 96503.77, 102081.22, 104006.42, 97686.93, -187500.02, -187500.02, 0.000, 0.000, 0.000, 18:57:56.919, 1577145476919
144, -187500.02, 90527.52, 96522.30, 102098.70, 103858.45, 95576.34, -187500.02, -187500.02, 0.000, 0.000, 0.000, 18:57:56.919, 1577145476919
145, -187500.02, 90929.42, 96922.73, 102501.43, 104285.28, 96151.34, -187500.02, -187500.02, 0.194, 0.270, 0.982, 18:57:56.919, 1577145476919
146, -187500.02, 91008.57, 96941.13, 102521.01, 104497.22, 98763.15, -187500.02, -187500.02, 0.000, 0.000, 0.000, 18:57:56.919, 1577145476919
147, -187500.02, 90621.84, 96557.81, 102138.23, 104084.67, 98027.95, -187500.02, -187500.02, 0.000, 0.000, 0.000, 18:57:56.919, 1577145476919
148, -187500.02, 90499.80, 96478.59, 102063.02, 103853.98, 95892.80, -187500.02, -187500.02, 0.000, 0.000, 0.000, 18:57:56.919, 1577145476919
149, -187500.02, 90846.09, 96840.90, 102425.59, 104184.02, 95740.43, -187500.02, -187500.02, 0.000, 0.000, 0.000, 18:57:56.919, 1577145476919
150, -187500.02, 91043.32, 96976.84, 102561.36, 104522.97, 98518.41, -187500.02, -187500.02, 0.000, 0.000, 0.000, 18:57:56.919, 1577145476919
151, -187500.02, 90660.93, 96582.84, 102165.53, 104135.52, 98306.73, -187500.02, -187500.02, 0.000, 0.000, 0.000, 18:57:56.919, 1577145476919
152, -187500.02, 90479.55, 96452.55, 102033.01, 103838.42, 96228.19, -187500.02, -187500.02, 0.000, 0.000, 0.000, 18:57:56.919, 1577145476919
153, -187500.02, 90775.80, 96785.60, 102367.48, 104107.80, 95425.95, -187500.02, -187500.02, 0.000, 0.000, 0.000, 18:57:56.919, 1577145476919
154, -187500.02, 91059.75, 97014.88, 102591.91, 104530.92, 98142.73, -187500.02, -187500.02, 0.000, 0.000, 0.000, 18:57:56.919, 1577145476919
155, -187500.02, 90746.07, 96676.84, 102253.84, 104245.29, 98601.66, -187500.02, -187500.02, 0.194, 0.274, 0.988, 18:57:56.919, 1577145476919
156, -187500.02, 90491.68, 96465.16, 102044.13, 103898.17, 96647.76, -187500.02, -187500.02, 0.000, 0.000, 0.000, 18:57:56.919, 1577145476919
157, -187500.02, 90680.04, 96698.34, 102276.80, 104014.69, 95265.77, -187500.02, -187500.02, 0.000, 0.000, 0.000, 18:57:56.919, 1577145476919
158, -187500.02, 91040.91, 97002.63, 102575.41, 104478.66, 97660.65, -187500.02, -187500.02, 0.000, 0.000, 0.000, 18:57:56.919, 1577145476919
159, -187500.02, 90801.95, 96727.84, 102302.27, 104299.47, 98763.02, -187500.02, -187500.02, 0.000, 0.000, 0.000, 18:57:56.920, 1577145476920
160, -187500.02, 90485.02, 96440.66, 102020.04, 103901.66, 96992.91, -187500.02, -187500.02, 0.000, 0.000, 0.000, 18:57:56.920, 1577145476920
161, -187500.02, 90612.43, 96616.73, 102196.66, 103929.53, 95237.63, -187500.02, -187500.02, 0.000, 0.000, 0.000, 18:57:56.920, 1577145476920
162, -187500.02, 91019.41, 96989.42, 102569.27, 104433.13, 97129.79, -187500.02, -187500.02, 0.000, 0.000, 0.000, 18:57:56.920, 1577145476920
163, -187500.02, 90881.36, 96806.20, 102386.16, 104386.58, 98879.82, -187500.02, -187500.02, 0.000, 0.000, 0.000, 18:57:56.920, 1577145476920
164, -187500.02, 90519.04, 96463.91, 102045.34, 103951.27, 97377.12, -187500.02, -187500.02, 0.000, 0.000, 0.000, 18:57:56.920, 1577145476920
165, -187500.02, 90532.74, 96530.21, 102113.67, 103865.18, 95362.48, -187500.02, -187500.02, 0.192, 0.272, 0.986, 18:57:56.920, 1577145476920
166, -187500.02, 90950.07, 96935.38, 102520.48, 104347.64, 96579.18, -187500.02, -187500.02, 0.000, 0.000, 0.000, 18:57:56.920, 1577145476920
167, -187500.02, 90941.55, 96872.66, 102457.11, 104451.48, 98859.26, -187500.02, -187500.02, 0.000, 0.000, 0.000, 18:57:56.920, 1577145476920
168, -187500.02, 90559.16, 96503.27, 102082.78, 104012.07, 97724.23, -187500.02, -187500.02, 0.000, 0.000, 0.000, 18:57:56.920, 1577145476920
169, -187500.02, 90512.45, 96504.68, 102086.70, 103854.23, 95598.34, -187500.02, -187500.02, 0.000, 0.000, 0.000, 18:57:56.921, 1577145476921
170, -187500.02, 90900.95, 96897.89, 102479.52, 104264.65, 96068.51, -187500.02, -187500.02, 0.000, 0.000, 0.000, 18:57:56.921, 1577145476921
171, -187500.02, 91004.92, 96942.44, 102519.05, 104502.18, 98729.80, -187500.02, -187500.02, 0.000, 0.000, 0.000, 18:57:56.921, 1577145476921
172, -187500.02, 90617.63, 96550.66, 102128.73, 104087.13, 98071.12, -187500.02, -187500.02, 0.000, 0.000, 0.000, 18:57:56.921, 1577145476921
173, -187500.02, 90490.21, 96475.29, 102057.19, 103852.93, 95936.27, -187500.02, -187500.02, 0.000, 0.000, 0.000, 18:57:56.921, 1577145476921
174, -187500.02, 90853.47, 96857.66, 102441.30, 104200.97, 95683.19, -187500.02, -187500.02, 0.000, 0.000, 0.000, 18:57:56.921, 1577145476921
175, -187500.02, 91054.74, 97003.73, 102583.20, 104554.48, 98488.84, -187500.02, -187500.02, 0.194, 0.274, 0.984, 18:57:56.921, 1577145476921
176, -187500.02, 90698.48, 96631.57, 102209.67, 104189.16, 98395.66, -187500.02, -187500.02, 0.000, 0.000, 0.000, 18:57:56.921, 1577145476921
177, -187500.02, 90483.62, 96454.19, 102033.66, 103865.45, 96306.29, -187500.02, -187500.02, 0.000, 0.000, 0.000, 18:57:56.921, 1577145476921
178, -187500.02, 90757.27, 96775.02, 102352.86, 104086.17, 95378.53, -187500.02, -187500.02, 0.000, 0.000, 0.000, 18:57:56.921, 1577145476921
179, -187500.02, 91070.15, 97030.38, 102610.62, 104533.49, 98064.52, -187500.02, -187500.02, 0.000, 0.000, 0.000, 18:57:56.921, 1577145476921
180, -187500.02, 90738.53, 96667.45, 102241.59, 104237.73, 98590.63, -187500.02, -187500.02, 0.000, 0.000, 0.000, 18:57:56.921, 1577145476921
181, -187500.02, 90485.31, 96442.09, 102016.20, 103887.38, 96672.74, -187500.02, -187500.02, 0.000, 0.000, 0.000, 18:57:56.921, 1577145476921
182, -187500.02, 90685.02, 96702.94, 102279.84, 104020.50, 95266.87, -187500.02, -187500.02, 0.000, 0.000, 0.000, 18:57:56.921, 1577145476921
183, -187500.02, 91065.34, 97038.59, 102610.64, 104503.95, 97593.93, -187500.02, -187500.02, 0.000, 0.000, 0.000, 18:57:56.922, 1577145476922
184, -187500.02, 90839.61, 96769.64, 102342.02, 104346.73, 98794.44, -187500.02, -187500.02, 0.000, 0.000, 0.000, 18:57:56.922, 1577145476922
185, -187500.02, 90491.08, 96451.48, 102025.77, 103921.44, 97060.97, -187500.02, -187500.02, 0.200, 0.272, 0.984, 18:57:56.922, 1577145476922
186, -187500.02, 90602.26, 96610.70, 102187.01, 103937.48, 95273.55, -187500.02, -187500.02, 0.000, 0.000, 0.000, 18:57:56.922, 1577145476922
187, -187500.02, 91027.77, 97007.77, 102581.52, 104441.63, 97063.77, -187500.02, -187500.02, 0.000, 0.000, 0.000, 18:57:56.922, 1577145476922
188, -187500.02, 90906.13, 96832.70, 102405.61, 104411.95, 98880.74, -187500.02, -187500.02, 0.000, 0.000, 0.000, 18:57:56.922, 1577145476922
189, -187500.02, 90535.34, 96483.73, 102057.62, 103980.38, 97433.40, -187500.02, -187500.02, 0.000, 0.000, 0.000, 18:57:56.922, 1577145476922
190, -187500.02, 90559.38, 96560.34, 102135.69, 103894.84, 95407.21, -187500.02, -187500.02, 0.000, 0.000, 0.000, 18:57:56.922, 1577145476922
191, -187500.02, 90980.72, 96970.88, 102548.41, 104365.32, 96510.07, -187500.02, -187500.02, 0.000, 0.000, 0.000, 18:57:56.922, 1577145476922
192, -187500.02, 90971.84, 96900.80, 102476.11, 104477.55, 98844.69, -187500.02, -187500.02, 0.000, 0.000, 0.000, 18:57:56.922, 1577145476922
193, -187500.02, 90593.83, 96534.21, 102110.23, 104055.13, 97788.01, -187500.02, -187500.02, 0.000, 0.000, 0.000, 18:57:56.922, 1577145476922
194, -187500.02, 90522.05, 96515.03, 102090.47, 103865.02, 95638.53, -187500.02, -187500.02, 0.000, 0.000, 0.000, 18:57:56.923, 1577145476923
195, -187500.02, 90913.88, 96907.30, 102483.48, 104267.33, 96018.38, -187500.02, -187500.02, 0.196, 0.266, 0.976, 18:57:56.923, 1577145476923
196, -187500.02, 91026.65, 96955.90, 102531.94, 104519.97, 98708.41, -187500.02, -187500.02, 0.000, 0.000, 0.000, 18:57:56.923, 1577145476923
197, -187500.02, 90636.08, 96569.73, 102144.52, 104117.38, 98105.91, -187500.02, -187500.02, 0.000, 0.000, 0.000, 18:57:56.923, 1577145476923
198, -187500.02, 90487.37, 96468.36, 102042.93, 103859.30, 95977.94, -187500.02, -187500.02, 0.000, 0.000, 0.000, 18:57:56.923, 1577145476923
199, -187500.02, 90823.63, 96818.45, 102398.32, 104168.58, 95644.99, -187500.02, -187500.02, 0.000, 0.000, 0.000, 18:57:56.923, 1577145476923
200, -187500.02, 91057.85, 96997.20, 102571.34, 104530.34, 98424.14, -187500.02, -187500.02, 0.000, 0.000, 0.000, 18:57:56.923, 1577145476923
201, -187500.02, 90714.80, 96637.07, 102204.91, 104188.98, 98402.61, -187500.02, -187500.02, 0.000, 0.000, 0.000, 18:57:56.923, 1577145476923
202, -187500.02, 90494.92, 96453.32, 102026.95, 103870.03, 96352.35, -187500.02, -187500.02, 0.000, 0.000, 0.000, 18:57:56.923, 1577145476923
203, -187500.02, 90751.43, 96750.38, 102328.09, 104077.07, 95364.36, -187500.02, -187500.02, 0.000, 0.000, 0.000, 18:57:56.923, 1577145476923
204, -187500.02, 91078.57, 97030.02, 102601.52, 104534.88, 98017.16, -187500.02, -187500.02, 0.000, 0.000, 0.000, 18:57:56.923, 1577145476923
205, -187500.02, 90779.17, 96697.09, 102269.35, 104274.41, 98643.14, -187500.02, -187500.02, 0.192, 0.266, 0.982, 18:57:56.923, 1577145476923
206, -187500.02, 90491.34, 96450.79, 102026.41, 103905.23, 96747.65, -187500.02, -187500.02, 0.000, 0.000, 0.000, 18:57:56.923, 1577145476923
207, -187500.02, 90678.43, 96679.54, 102259.16, 104005.48, 95265.05, -187500.02, -187500.02, 0.000, 0.000, 0.000, 18:57:56.923, 1577145476923
208, -187500.02, 91057.45, 97015.02, 102591.71, 104494.23, 97528.93, -187500.02, -187500.02, 0.000, 0.000, 0.000, 18:57:56.923, 1577145476923
209, -187500.02, 90834.49, 96747.42, 102321.16, 104331.86, 98805.46, -187500.02, -187500.02, 0.000, 0.000, 0.000, 18:57:56.923, 1577145476923
210, -187500.02, 90508.83, 96442.99, 102019.82, 103925.53, 97113.99, -187500.02, -187500.02, 0.000, 0.000, 0.000, 18:57:56.923, 1577145476923
211, -187500.02, 90612.63, 96609.20, 102185.96, 103943.16, 95288.21, -187500.02, -187500.02, 0.000, 0.000, 0.000, 18:57:56.924, 1577145476924
212, -187500.02, 91035.97, 97010.37, 102584.36, 104443.80, 96997.38, -187500.02, -187500.02, 0.000, 0.000, 0.000, 18:57:56.924, 1577145476924
213, -187500.02, 90933.29, 96848.77, 102424.09, 104431.10, 98892.23, -187500.02, -187500.02, 0.000, 0.000, 0.000, 18:57:56.924, 1577145476924
214, -187500.02, 90552.21, 96487.18, 102066.47, 103998.28, 97490.13, -187500.02, -187500.02, 0.000, 0.000, 0.000, 18:57:56.924, 1577145476924
215, -187500.02, 90548.63, 96537.13, 102117.20, 103887.02, 95434.84, -187500.02, -187500.02, 0.200, 0.266, 0.986, 18:57:56.924, 1577145476924
216, -187500.02, 90976.58, 96955.41, 102533.05, 104343.93, 96437.89, -187500.02, -187500.02, 0.000, 0.000, 0.000, 18:57:56.924, 1577145476924
217, -187500.02, 90997.50, 96912.47, 102490.45, 104484.99, 98840.75, -187500.02, -187500.02, 0.000, 0.000, 0.000, 18:57:56.924, 1577145476924
218, -187500.02, 90604.23, 96536.02, 102118.21, 104065.49, 97856.78, -187500.02, -187500.02, 0.000, 0.000, 0.000, 18:57:56.924, 1577145476924
219, -187500.02, 90526.30, 96504.73, 102084.86, 103879.35, 95729.03, -187500.02, -187500.02, 0.000, 0.000, 0.000, 18:57:56.924, 1577145476924
220, -187500.02, 90908.90, 96888.46, 102470.18, 104254.37, 95973.56, -187500.02, -187500.02, 0.000, 0.000, 0.000, 18:57:56.924, 1577145476924
221, -187500.02, 91043.10, 96966.71, 102549.29, 104537.90, 98699.80, -187500.02, -187500.02, 0.000, 0.000, 0.000, 18:57:56.924, 1577145476924
222, -187500.02, 90650.20, 96569.61, 102151.67, 104121.33, 98178.83, -187500.02, -187500.02, 0.000, 0.000, 0.000, 18:57:56.924, 1577145476924
223, -187500.02, 90501.41, 96462.05, 102048.74, 103855.95, 96037.22, -187500.02, -187500.02, 0.000, 0.000, 0.000, 18:57:56.924, 1577145476924
224, -187500.02, 90823.96, 96818.12, 102412.60, 104180.41, 95606.52, -187500.02, -187500.02, 0.000, 0.000, 0.000, 18:57:56.924, 1577145476924
225, -187500.02, 91065.27, 96994.54, 102582.27, 104552.52, 98403.53, -187500.02, -187500.02, 0.200, 0.270, 0.988, 18:57:57.398, 1577145477398
226, -187500.02, 90724.01, 96632.04, 102218.73, 104206.02, 98457.17, -187500.02, -187500.02, 0.000, 0.000, 0.000, 18:57:57.398, 1577145477398
227, -187500.02, 90497.59, 96452.34, 102041.66, 103876.78, 96400.90, -187500.02, -187500.02, 0.000, 0.000, 0.000, 18:57:57.398, 1577145477398
228, -187500.02, 90753.49, 96747.09, 102336.25, 104074.99, 95356.38, -187500.02, -187500.02, 0.000, 0.000, 0.000, 18:57:57.398, 1577145477398
229, -187500.02, 91082.93, 97025.84, 102613.55, 104534.39, 97988.84, -187500.02, -187500.02, 0.000, 0.000, 0.000, 18:57:57.398, 1577145477398
230, -187500.02, 90787.62, 96699.43, 102287.01, 104283.83, 98688.49, -187500.02, -187500.02, 0.000, 0.000, 0.000, 18:57:57.398, 1577145477398
231, -187500.02, 90497.72, 96439.19, 102029.79, 103904.18, 96799.37, -187500.02, -187500.02, 0.000, 0.000, 0.000, 18:57:57.398, 1577145477398
232, -187500.02, 90672.64, 96661.48, 102254.53, 103999.55, 95268.36, -187500.02, -187500.02, 0.000, 0.000, 0.000, 18:57:57.398, 1577145477398
233, -187500.02, 91060.13, 97007.53, 102596.83, 104492.63, 97474.14, -187500.02, -187500.02, 0.000, 0.000, 0.000, 18:57:57.398, 1577145477398
234, -187500.02, 90871.38, 96782.88, 102370.78, 104373.44, 98853.96, -187500.02, -187500.02, 0.000, 0.000, 0.000, 18:57:57.398, 1577145477398
235, -187500.02, 90524.56, 96460.94, 102051.29, 103949.06, 97180.13, -187500.02, -187500.02, 0.200, 0.270, 0.984, 18:57:57.398, 1577145477398
236, -187500.02, 90604.54, 96597.46, 102188.93, 103941.06, 95316.53, -187500.02, -187500.02, 0.000, 0.000, 0.000, 18:57:57.398, 1577145477398
237, -187500.02, 91026.56, 96993.16, 102579.21, 104427.10, 96930.86, -187500.02, -187500.02, 0.000, 0.000, 0.000, 18:57:57.398, 1577145477398
238, -187500.02, 90929.93, 96835.58, 102422.75, 104420.04, 98889.01, -187500.02, -187500.02, 0.000, 0.000, 0.000, 18:57:57.398, 1577145477398
239, -187500.02, 90547.05, 96479.83, 102067.90, 103991.98, 97535.59, -187500.02, -187500.02, 0.000, 0.000, 0.000, 18:57:57.398, 1577145477398
240, -187500.02, 90565.55, 96555.45, 102142.41, 103900.74, 95472.97, -187500.02, -187500.02, 0.000, 0.000, 0.000, 18:57:57.398, 1577145477398
241, -187500.02, 90967.51, 96942.89, 102530.22, 104339.26, 96393.26, -187500.02, -187500.02, 0.000, 0.000, 0.000, 18:57:57.398, 1577145477398
242, -187500.02, 90997.19, 96918.08, 102502.88, 104501.46, 98863.02, -187500.02, -187500.02, 0.000, 0.000, 0.000, 18:57:57.398, 1577145477398
243, -187500.02, 90612.18, 96546.44, 102127.55, 104082.44, 97927.37, -187500.02, -187500.02, 0.000, 0.000, 0.000, 18:57:57.398, 1577145477398
244, -187500.02, 90532.41, 96516.05, 102098.88, 103887.48, 95783.34, -187500.02, -187500.02, 0.000, 0.000, 0.000, 18:57:57.398, 1577145477398
245, -187500.02, 90907.56, 96902.21, 102486.48, 104267.38, 95951.99, -187500.02, -187500.02, 0.198, 0.272, 0.982, 18:57:57.398, 1577145477398
246, -187500.02, 91032.64, 96964.75, 102545.02, 104532.76, 98678.66, -187500.02, -187500.02, 0.000, 0.000, 0.000, 18:57:57.398, 1577145477398
247, -187500.02, 90655.38, 96580.56, 102160.39, 104134.31, 98227.04, -187500.02, -187500.02, 0.000, 0.000, 0.000, 18:57:57.399, 1577145477399
248, -187500.02, 90493.11, 96463.60, 102049.75, 103870.66, 96099.09, -187500.02, -187500.02, 0.000, 0.000, 0.000, 18:57:57.399, 1577145477399
249, -187500.02, 90819.18, 96820.80, 102398.34, 104164.49, 95574.55, -187500.02, -187500.02, 0.000, 0.000, 0.000, 18:57:57.399, 1577145477399
250, -187500.02, 91073.50, 97008.29, 102581.30, 104540.70, 98351.83, -187500.02, -187500.02, 0.000, 0.000, 0.000, 18:57:57.399, 1577145477399
251, -187500.02, 90730.49, 96648.80, 102221.99, 104213.26, 98508.59, -187500.02, -187500.02, 0.000, 0.000, 0.000, 18:57:57.399, 1577145477399
252, -187500.02, 90496.82, 96463.55, 102038.13, 103886.23, 96483.73, -187500.02, -187500.02, 0.000, 0.000, 0.000, 18:57:57.399, 1577145477399
253, -187500.02, 90741.62, 96745.30, 102321.90, 104064.87, 95352.65, -187500.02, -187500.02, 0.000, 0.000, 0.000, 18:57:57.399, 1577145477399
254, -187500.02, 91088.59, 97048.27, 102623.54, 104544.80, 97941.61, -187500.02, -187500.02, 0.000, 0.000, 0.000, 18:57:57.399, 1577145477399
255, -187500.02, 90806.62, 96727.02, 102297.36, 104294.02, 98727.41, -187500.02, -187500.02, 0.204, 0.270, 0.986, 18:57:57.399, 1577145477399
0, -187500.02, 90504.45, 96454.73, 102028.02, 103896.78, 96840.72, -187500.02, -187500.02, 0.000, 0.000, 0.000, 18:57:57.399, 1577145477399
1, -187500.02, 90651.20, 96652.98, 102230.69, 103975.93, 95252.70, -187500.02, -187500.02, 0.000, 0.000, 0.000, 18:57:57.399, 1577145477399
2, -187500.02, 91065.48, 97032.18, 102605.91, 104499.41, 97438.72, -187500.02, -187500.02, 0.000, 0.000, 0.000, 18:57:57.399, 1577145477399
3, -187500.02, 90878.55, 96794.31, 102369.78, 104383.18, 98888.83, -187500.02, -187500.02, 0.000, 0.000, 0.000, 18:57:57.399, 1577145477399
4, -187500.02, 90513.92, 96458.66, 102033.84, 103946.59, 97243.30, -187500.02, -187500.02, 0.000, 0.000, 0.000, 18:57:57.399, 1577145477399
5, -187500.02, 90597.65, 96595.48, 102169.24, 103918.46, 95333.67, -187500.02, -187500.02, 0.000, 0.000, 0.000, 18:57:57.399, 1577145477399
6, -187500.02, 91019.61, 96992.84, 102570.16, 104411.05, 96864.23, -187500.02, -187500.02, 0.000, 0.000, 0.000, 18:57:57.399, 1577145477399
7, -187500.02, 90936.62, 96863.90, 102438.51, 104446.93, 98922.24, -187500.02, -187500.02, 0.000, 0.000, 0.000, 18:57:57.399, 1577145477399
8, -187500.02, 90562.05, 96507.81, 102080.46, 104013.46, 97614.69, -187500.02, -187500.02, 0.000, 0.000, 0.000, 18:57:57.399, 1577145477399
9, -187500.02, 90557.06, 96549.85, 102120.83, 103884.38, 95524.70, -187500.02, -187500.02, 0.198, 0.268, 0.986, 18:57:57.399, 1577145477399
10, -187500.02, 90972.47, 96960.66, 102536.45, 104348.24, 96358.01, -187500.02, -187500.02, 0.000, 0.000, 0.000, 18:57:57.399, 1577145477399
11, -187500.02, 91012.70, 96942.95, 102514.23, 104518.16, 98873.72, -187500.02, -187500.02, 0.000, 0.000, 0.000, 18:57:57.399, 1577145477399
12, -187500.02, 90624.79, 96559.98, 102133.39, 104094.55, 97990.42, -187500.02, -187500.02, 0.000, 0.000, 0.000, 18:57:57.399, 1577145477399
13, -187500.02, 90523.65, 96513.11, 102089.76, 103882.48, 95828.27, -187500.02, -187500.02, 0.000, 0.000, 0.000, 18:57:57.399, 1577145477399
14, -187500.02, 90885.54, 96886.00, 102460.55, 104238.66, 95905.50, -187500.02, -187500.02, 0.000, 0.000, 0.000, 18:57:57.399, 1577145477399
15, -187500.02, 91042.85, 96976.26, 102551.37, 104538.19, 98655.16, -187500.02, -187500.02, 0.000, 0.000, 0.000, 18:57:57.399, 1577145477399
16, -187500.02, 90659.81, 96586.40, 102163.65, 104142.72, 98263.14, -187500.02, -187500.02, 0.000, 0.000, 0.000, 18:57:57.399, 1577145477399
17, -187500.02, 90505.70, 96482.33, 102059.63, 103886.41, 96166.21, -187500.02, -187500.02, 0.000, 0.000, 0.000, 18:57:57.399, 1577145477399
18, -187500.02, 90818.66, 96823.44, 102401.02, 104151.50, 95553.99, -187500.02, -187500.02, 0.000, 0.000, 0.000, 18:57:57.399, 1577145477399
19, -187500.02, 91082.10, 97024.77, 102599.48, 104543.80, 98321.16, -187500.02, -187500.02, 0.200, 0.266, 0.992, 18:57:57.399, 1577145477399
20, -187500.02, 90735.70, 96655.84, 102229.01, 104210.22, 98533.17, -187500.02, -187500.02, 0.000, 0.000, 0.000, 18:57:57.399, 1577145477399
21, -187500.02, 90490.41, 96453.38, 102032.05, 103887.10, 96535.75, -187500.02, -187500.02, 0.000, 0.000, 0.000, 18:57:57.399, 1577145477399
22, -187500.02, 90721.80, 96731.06, 102308.31, 104059.95, 95344.89, -187500.02, -187500.02, 0.000, 0.000, 0.000, 18:57:57.400, 1577145477400
23, -187500.02, 91082.23, 97036.83, 102613.13, 104539.42, 97888.10, -187500.02, -187500.02, 0.000, 0.000, 0.000, 18:57:57.400, 1577145477400
24, -187500.02, 90813.39, 96732.78, 102305.25, 104311.85, 98767.26, -187500.02, -187500.02, 0.000, 0.000, 0.000, 18:57:57.400, 1577145477400
25, -187500.02, 90518.33, 96471.09, 102043.84, 103921.28, 96918.14, -187500.02, -187500.02, 0.000, 0.000, 0.000, 18:57:57.400, 1577145477400
26, -187500.02, 90679.03, 96679.74, 102257.26, 104004.97, 95288.34, -187500.02, -187500.02, 0.000, 0.000, 0.000, 18:57:57.400, 1577145477400
27, -187500.02, 91064.36, 97018.59, 102598.70, 104492.10, 97371.37, -187500.02, -187500.02, 0.000, 0.000, 0.000, 18:57:57.400, 1577145477400
28, -187500.02, 90881.09, 96805.20, 102379.68, 104389.80, 98895.58, -187500.02, -187500.02, 0.000, 0.000, 0.000, 18:57:57.400, 1577145477400
29, -187500.02, 90545.75, 96490.04, 102060.59, 103962.34, 97300.96, -187500.02, -187500.02, 0.000, 0.000, 0.000, 18:57:57.400, 1577145477400
30, -187500.02, 90619.13, 96607.86, 102185.34, 103930.80, 95377.33, -187500.02, -187500.02, 0.198, 0.270, 0.990, 18:57:57.400, 1577145477400
31, -187500.02, 91029.51, 96997.36, 102571.08, 104410.60, 96819.30, -187500.02, -187500.02, 0.000, 0.000, 0.000, 18:57:57.400, 1577145477400
32, -187500.02, 90963.05, 96876.28, 102450.45, 104457.09, 98939.05, -187500.02, -187500.02, 0.000, 0.000, 0.000, 18:57:57.400, 1577145477400
33, -187500.02, 90585.36, 96513.17, 102089.38, 104020.79, 97682.28, -187500.02, -187500.02, 0.000, 0.000, 0.000, 18:57:57.400, 1577145477400
34, -187500.02, 90554.80, 96537.43, 102118.27, 103884.89, 95570.34, -187500.02, -187500.02, 0.000, 0.000, 0.000, 18:57:57.400, 1577145477400
35, -187500.02, 90961.56, 96947.34, 102524.45, 104328.02, 96290.51, -187500.02, -187500.02, 0.000, 0.000, 0.000, 18:57:57.400, 1577145477400
36, -187500.02, 91022.72, 96938.15, 102511.49, 104504.70, 98836.17, -187500.02, -187500.02, 0.000, 0.000, 0.000, 18:57:57.400, 1577145477400
37, -187500.02, 90633.82, 96550.75, 102125.07, 104081.32, 97999.63, -187500.02, -187500.02, 0.000, 0.000, 0.000, 18:57:57.400, 1577145477400
38, -187500.02, 90521.77, 96491.61, 102067.25, 103859.45, 95855.43, -187500.02, -187500.02, 0.000, 0.000, 0.000, 18:57:57.400, 1577145477400
39, -187500.02, 90882.48, 96864.99, 102442.45, 104208.26, 95835.74, -187500.02, -187500.02, 0.000, 0.000, 0.000, 18:57:57.400, 1577145477400
40, -187500.02, 91060.76, 96987.97, 102563.93, 104544.96, 98617.99, -187500.02, -187500.02, 0.198, 0.274, 0.980, 18:57:57.400, 1577145477400
41, -187500.02, 90690.97, 96610.41, 102182.63, 104161.16, 98320.27, -187500.02, -187500.02, 0.000, 0.000, 0.000, 18:57:57.400, 1577145477400
42, -187500.02, 90507.77, 96469.55, 102043.66, 103870.48, 96217.64, -187500.02, -187500.02, 0.000, 0.000, 0.000, 18:57:57.400, 1577145477400
43, -187500.02, 90811.13, 96800.51, 102378.56, 104128.88, 95514.84, -187500.02, -187500.02, 0.000, 0.000, 0.000, 18:57:57.400, 1577145477400
44, -187500.02, 91090.24, 97024.18, 102601.45, 104541.95, 98265.15, -187500.02, -187500.02, 0.000, 0.000, 0.000, 18:57:57.400, 1577145477400
45, -187500.02, 90756.75, 96666.73, 102240.14, 104216.81, 98564.20, -187500.02, -187500.02, 0.000, 0.000, 0.000, 18:57:57.400, 1577145477400
46, -187500.02, 90516.67, 96463.29, 102039.02, 103889.98, 96597.27, -187500.02, -187500.02, 0.000, 0.000, 0.000, 18:57:57.400, 1577145477400
47, -187500.02, 90731.12, 96715.57, 102295.82, 104039.27, 95333.52, -187500.02, -187500.02, 0.000, 0.000, 0.000, 18:57:57.400, 1577145477400
48, -187500.02, 91077.39, 97015.69, 102593.85, 104508.75, 97815.66, -187500.02, -187500.02, 0.000, 0.000, 0.000, 18:57:57.400, 1577145477400
49, -187500.02, 90826.38, 96733.09, 102309.14, 104299.45, 98782.16, -187500.02, -187500.02, 0.000, 0.000, 0.000, 18:57:57.400, 1577145477400
50, -187500.02, 90521.57, 96461.66, 102042.57, 103917.88, 96970.67, -187500.02, -187500.02, 0.192, 0.272, 0.978, 18:57:57.400, 1577145477400
51, -187500.02, 90661.84, 96646.10, 102233.37, 103973.72, 95283.09, -187500.02, -187500.02, 0.000, 0.000, 0.000, 18:57:57.400, 1577145477400
52, -187500.02, 91067.27, 97014.26, 102593.01, 104462.57, 97289.48, -187500.02, -187500.02, 0.000, 0.000, 0.000, 18:57:57.401, 1577145477401
53, -187500.02, 90897.70, 96801.89, 102382.61, 104384.79, 98895.38, -187500.02, -187500.02, 0.000, 0.000, 0.000, 18:57:57.401, 1577145477401
54, -187500.02, 90551.67, 96481.64, 102060.09, 103967.52, 97360.30, -187500.02, -187500.02, 0.000, 0.000, 0.000, 18:57:57.401, 1577145477401
55, -187500.02, 90608.47, 96585.86, 102166.89, 103910.55, 95391.95, -187500.02, -187500.02, 0.000, 0.000, 0.000, 18:57:57.401, 1577145477401
56, -187500.02, 91040.41, 97001.83, 102584.00, 104405.13, 96753.34, -187500.02, -187500.02, 0.000, 0.000, 0.000, 18:57:57.401, 1577145477401
57, -187500.02, 90990.51, 96893.31, 102477.23, 104474.87, 98951.13, -187500.02, -187500.02, 0.000, 0.000, 0.000, 18:57:57.401, 1577145477401
58, -187500.02, 90594.16, 96511.45, 102094.70, 104023.70, 97727.88, -187500.02, -187500.02, 0.000, 0.000, 0.000, 18:57:57.401, 1577145477401
59, -187500.02, 90551.74, 96514.27, 102097.20, 103868.69, 95599.10, -187500.02, -187500.02, 0.000, 0.000, 0.000, 18:57:57.401, 1577145477401
60, -187500.02, 90959.88, 96924.23, 102510.22, 104308.95, 96247.88, -187500.02, -187500.02, 0.194, 0.266, 0.980, 18:57:57.401, 1577145477401
61, -187500.02, 91033.20, 96941.13, 102526.20, 104508.30, 98832.68, -187500.02, -187500.02, 0.000, 0.000, 0.000, 18:57:57.401, 1577145477401
62, -187500.02, 90643.88, 96549.43, 102133.92, 104080.47, 98036.38, -187500.02, -187500.02, 0.000, 0.000, 0.000, 18:57:57.401, 1577145477401
63, -187500.02, 90529.77, 96485.46, 102070.22, 103860.08, 95908.34, -187500.02, -187500.02, 0.000, 0.000, 0.000, 18:57:57.401, 1577145477401
64, -187500.02, 90876.89, 96851.71, 102439.23, 104196.41, 95805.81, -187500.02, -187500.02, 0.000, 0.000, 0.000, 18:57:57.401, 1577145477401
65, -187500.02, 91067.73, 96974.23, 102560.33, 104520.91, 98576.24, -187500.02, -187500.02, 0.000, 0.000, 0.000, 18:57:57.401, 1577145477401
66, -187500.02, 90720.16, 96617.63, 102202.41, 104166.05, 98359.20, -187500.02, -187500.02, 0.000, 0.000, 0.000, 18:57:57.401, 1577145477401
67, -187500.02, 90533.01, 96476.14, 102062.17, 103869.00, 96270.34, -187500.02, -187500.02, 0.000, 0.000, 0.000, 18:57:57.401, 1577145477401
68, -187500.02, 90808.74, 96778.65, 102365.63, 104093.99, 95487.59, -187500.02, -187500.02, 0.000, 0.000, 0.000, 18:57:57.401, 1577145477401
69, -187500.02, 91101.46, 97011.91, 102596.85, 104529.52, 98222.01, -187500.02, -187500.02, 0.000, 0.000, 0.000, 18:57:57.401, 1577145477401
70, -187500.02, 90781.90, 96672.99, 102259.23, 104243.19, 98613.88, -187500.02, -187500.02, 0.200, 0.264, 0.982, 18:57:57.401, 1577145477401
71, -187500.02, 90534.13, 96469.23, 102052.12, 103896.63, 96651.38, -187500.02, -187500.02, 0.000, 0.000, 0.000, 18:57:57.401, 1577145477401
72, -187500.02, 90741.24, 96710.92, 102295.33, 104019.52, 95315.55, -187500.02, -187500.02, 0.000, 0.000, 0.000, 18:57:57.401, 1577145477401
73, -187500.02, 91097.52, 97021.77, 102601.50, 104493.77, 97739.84, -187500.02, -187500.02, 0.000, 0.000, 0.000, 18:57:57.401, 1577145477401
74, -187500.02, 90857.05, 96744.25, 102325.34, 104315.09, 98822.34, -187500.02, -187500.02, 0.000, 0.000, 0.000, 18:57:57.401, 1577145477401
75, -187500.02, 90561.20, 96487.09, 102071.49, 103933.41, 97043.54, -187500.02, -187500.02, 0.000, 0.000, 0.000, 18:57:57.401, 1577145477401
76, -187500.02, 90691.20, 96661.44, 102243.83, 103974.70, 95312.75, -187500.02, -187500.02, 0.000, 0.000, 0.000, 18:57:57.401, 1577145477401
77, -187500.02, 91090.40, 97019.94, 102598.84, 104460.96, 97238.09, -187500.02, -187500.02, 0.000, 0.000, 0.000, 18:57:57.401, 1577145477401
78, -187500.02, 90948.41, 96827.73, 102405.66, 104396.41, 98935.39, -187500.02, -187500.02, 0.000, 0.000, 0.000, 18:57:57.401, 1577145477401
79, -187500.02, 90591.02, 96497.35, 102074.52, 103977.92, 97414.02, -187500.02, -187500.02, 0.000, 0.000, 0.000, 18:57:57.401, 1577145477401
80, -187500.02, 90634.89, 96598.07, 102177.29, 103917.57, 95428.34, -187500.02, -187500.02, 0.198, 0.266, 0.984, 18:57:57.401, 1577145477401
81, -187500.02, 91045.83, 96993.13, 102571.37, 104392.01, 96704.51, -187500.02, -187500.02, 0.000, 0.000, 0.000, 18:57:57.401, 1577145477401
82, -187500.02, 91011.92, 96893.96, 102466.18, 104464.38, 98950.90, -187500.02, -187500.02, 0.000, 0.000, 0.000, 18:57:57.401, 1577145477401
83, -187500.02, 90630.22, 96523.34, 102093.71, 104023.43, 97782.84, -187500.02, -187500.02, 0.000, 0.000, 0.000, 18:57:57.402, 1577145477402
84, -187500.02, 90598.95, 96554.26, 102125.20, 103874.88, 95657.55, -187500.02, -187500.02, 0.000, 0.000, 0.000, 18:57:57.402, 1577145477402
85, -187500.02, 90986.44, 96940.98, 102514.17, 104283.65, 96162.09, -187500.02, -187500.02, 0.000, 0.000, 0.000, 18:57:57.402, 1577145477402
86, -187500.02, 91068.24, 96958.27, 102529.66, 104502.63, 98792.90, -187500.02, -187500.02, 0.000, 0.000, 0.000, 18:57:57.402, 1577145477402
87, -187500.02, 90693.90, 96591.23, 102165.10, 104110.60, 98124.58, -187500.02, -187500.02, 0.000, 0.000, 0.000, 18:57:57.402, 1577145477402
88, -187500.02, 90562.31, 96510.78, 102087.88, 103877.52, 95979.66, -187500.02, -187500.02, 0.000, 0.000, 0.000, 18:57:57.402, 1577145477402
89, -187500.02, 90905.28, 96869.24, 102440.01, 104188.77, 95764.88, -187500.02, -187500.02, 0.000, 0.000, 0.000, 18:57:57.402, 1577145477402
90, -187500.02, 91108.14, 97006.12, 102576.31, 104534.32, 98554.16, -187500.02, -187500.02, 0.200, 0.268, 0.982, 18:57:57.878, 1577145477878
91, -187500.02, 90736.03, 96618.30, 102189.29, 104163.98, 98403.77, -187500.02, -187500.02, 0.000, 0.000, 0.000, 18:57:57.878, 1577145477878
92, -187500.02, 90524.18, 96455.71, 102032.94, 103858.74, 96322.65, -187500.02, -187500.02, 0.000, 0.000, 0.000, 18:57:57.878, 1577145477878
93, -187500.02, 90799.58, 96768.01, 102343.23, 104083.53, 95449.61, -187500.02, -187500.02, 0.000, 0.000, 0.000, 18:57:57.878, 1577145477878
94, -187500.02, 91101.95, 97005.65, 102579.21, 104504.41, 98139.04, -187500.02, -187500.02, 0.000, 0.000, 0.000, 18:57:57.878, 1577145477878
95, -187500.02, 90788.16, 96661.48, 102235.04, 104222.90, 98635.48, -187500.02, -187500.02, 0.000, 0.000, 0.000, 18:57:57.878, 1577145477878
96, -187500.02, 90538.84, 96457.32, 102031.66, 103887.48, 96710.36, -187500.02, -187500.02, 0.000, 0.000, 0.000, 18:57:57.878, 1577145477878
97, -187500.02, 90761.58, 96724.51, 102301.12, 104027.23, 95329.27, -187500.02, -187500.02, 0.000, 0.000, 0.000, 18:57:57.878, 1577145477878
98, -187500.02, 91134.50, 97052.48, 102629.33, 104515.99, 97707.83, -187500.02, -187500.02, 0.000, 0.000, 0.000, 18:57:57.878, 1577145477878
99, -187500.02, 90896.96, 96774.55, 102353.17, 104346.41, 98854.95, -187500.02, -187500.02, 0.000, 0.000, 0.000, 18:57:57.878, 1577145477878
100, -187500.02, 90578.27, 96488.30, 102069.48, 103953.16, 97116.12, -187500.02, -187500.02, 0.196, 0.266, 0.980, 18:57:57.878, 1577145477878
101, -187500.02, 90696.36, 96657.27, 102237.13, 103973.80, 95337.07, -187500.02, -187500.02, 0.000, 0.000, 0.000, 18:57:57.878, 1577145477878
102, -187500.02, 91097.08, 97021.79, 102598.13, 104452.67, 97168.48, -187500.02, -187500.02, 0.000, 0.000, 0.000, 18:57:57.878, 1577145477878
103, -187500.02, 90963.30, 96837.66, 102413.79, 104407.59, 98936.55, -187500.02, -187500.02, 0.000, 0.000, 0.000, 18:57:57.878, 1577145477878
104, -187500.02, 90593.18, 96491.36, 102068.79, 103973.43, 97455.91, -187500.02, -187500.02, 0.000, 0.000, 0.000, 18:57:57.878, 1577145477878
105, -187500.02, 90614.44, 96563.31, 102140.25, 103884.80, 95434.15, -187500.02, -187500.02, 0.000, 0.000, 0.000, 18:57:57.878, 1577145477878
106, -187500.02, 91037.80, 96977.66, 102553.31, 104370.48, 96628.64, -187500.02, -187500.02, 0.000, 0.000, 0.000, 18:57:57.878, 1577145477878
107, -187500.02, 91019.16, 96909.77, 102484.51, 104471.16, 98939.37, -187500.02, -187500.02, 0.000, 0.000, 0.000, 18:57:57.878, 1577145477878
108, -187500.02, 90636.09, 96535.75, 102110.77, 104030.55, 97813.89, -187500.02, -187500.02, 0.000, 0.000, 0.000, 18:57:57.878, 1577145477878
109, -187500.02, 90579.30, 96525.87, 102105.94, 103867.19, 95679.99, -187500.02, -187500.02, 0.000, 0.000, 0.000, 18:57:57.878, 1577145477878
110, -187500.02, 90957.00, 96907.80, 102485.07, 104258.99, 96106.06, -187500.02, -187500.02, 0.192, 0.270, 0.984, 18:57:57.879, 1577145477879
111, -187500.02, 91057.61, 96946.53, 102519.42, 104485.70, 98764.11, -187500.02, -187500.02, 0.000, 0.000, 0.000, 18:57:57.879, 1577145477879
112, -187500.02, 90677.67, 96565.55, 102142.91, 104085.43, 98137.43, -187500.02, -187500.02, 0.000, 0.000, 0.000, 18:57:57.879, 1577145477879
113, -187500.02, 90557.40, 96503.43, 102085.11, 103868.38, 96007.83, -187500.02, -187500.02, 0.000, 0.000, 0.000, 18:57:57.879, 1577145477879
114, -187500.02, 90887.91, 96845.81, 102424.16, 104158.90, 95681.42, -187500.02, -187500.02, 0.000, 0.000, 0.000, 18:57:57.879, 1577145477879
115, -187500.02, 91101.10, 96994.30, 102576.13, 104518.63, 98471.97, -187500.02, -187500.02, 0.000, 0.000, 0.000, 18:57:57.879, 1577145477879
116, -187500.02, 90739.20, 96624.22, 102201.80, 104177.86, 98449.22, -187500.02, -187500.02, 0.000, 0.000, 0.000, 18:57:57.879, 1577145477879
117, -187500.02, 90533.15, 96463.02, 102041.63, 103859.66, 96385.32, -187500.02, -187500.02, 0.000, 0.000, 0.000, 18:57:57.879, 1577145477879
118, -187500.02, 90816.16, 96780.08, 102362.49, 104086.21, 95432.47, -187500.02, -187500.02, 0.000, 0.000, 0.000, 18:57:57.879, 1577145477879
119, -187500.02, 91122.29, 97031.29, 102607.42, 104516.38, 98114.86, -187500.02, -187500.02, 0.000, 0.000, 0.000, 18:57:57.879, 1577145477879
120, -187500.02, 90823.20, 96699.32, 102277.69, 104238.63, 98669.23, -187500.02, -187500.02, 0.190, 0.274, 0.982, 18:57:57.879, 1577145477879
121, -187500.02, 90552.14, 96461.66, 102043.71, 103888.22, 96744.45, -187500.02, -187500.02, 0.000, 0.000, 0.000, 18:57:57.879, 1577145477879
122, -187500.02, 90748.03, 96708.17, 102291.88, 104021.87, 95331.02, -187500.02, -187500.02, 0.000, 0.000, 0.000, 18:57:57.879, 1577145477879
123, -187500.02, 91113.44, 97027.82, 102603.58, 104486.63, 97636.59, -187500.02, -187500.02, 0.000, 0.000, 0.000, 18:57:57.879, 1577145477879
124, -187500.02, 90884.73, 96752.18, 102331.11, 104318.29, 98850.61, -187500.02, -187500.02, 0.000, 0.000, 0.000, 18:57:57.879, 1577145477879
125, -187500.02, 90562.74, 96469.63, 102048.85, 103924.73, 97129.10, -187500.02, -187500.02, 0.000, 0.000, 0.000, 18:57:57.879, 1577145477879
126, -187500.02, 90672.53, 96632.60, 102208.87, 103932.05, 95315.41, -187500.02, -187500.02, 0.000, 0.000, 0.000, 18:57:57.880, 1577145477880
127, -187500.02, 91089.32, 97013.66, 102588.52, 104427.57, 97084.87, -187500.02, -187500.02, 0.000, 0.000, 0.000, 18:57:57.880, 1577145477880
128, -187500.02, 90972.31, 96846.46, 102418.44, 104407.37, 98958.43, -187500.02, -187500.02, 0.000, 0.000, 0.000, 18:57:57.880, 1577145477880
129, -187500.02, 90608.47, 96508.66, 102080.55, 103975.08, 97516.70, -187500.02, -187500.02, 0.000, 0.000, 0.000, 18:57:57.880, 1577145477880
130, -187500.02, 90624.50, 96574.40, 102147.91, 103888.20, 95478.55, -187500.02, -187500.02, 0.194, 0.274, 0.984, 18:57:57.880, 1577145477880
131, -187500.02, 91042.85, 96983.63, 102559.99, 104364.31, 96576.74, -187500.02, -187500.02, 0.000, 0.000, 0.000, 18:57:57.880, 1577145477880
132, -187500.02, 91024.73, 96904.38, 102479.39, 104462.93, 98914.67, -187500.02, -187500.02, 0.000, 0.000, 0.000, 18:57:57.880, 1577145477880
133, -187500.02, 90629.84, 96518.70, 102092.41, 104018.89, 97849.41, -187500.02, -187500.02, 0.000, 0.000, 0.000, 18:57:57.880, 1577145477880
134, -187500.02, 90567.34, 96508.26, 102084.21, 103852.23, 95715.87, -187500.02, -187500.02, 0.000, 0.000, 0.000, 18:57:57.880, 1577145477880
135, -187500.02, 90959.17, 96907.05, 102480.84, 104250.19, 96056.26, -187500.02, -187500.02, 0.000, 0.000, 0.000, 18:57:57.880, 1577145477880
136, -187500.02, 91083.02, 96973.78, 102546.85, 104511.92, 98767.41, -187500.02, -187500.02, 0.000, 0.000, 0.000, 18:57:57.880, 1577145477880
137, -187500.02, 90708.63, 96599.50, 102167.74, 104106.46, 98184.93, -187500.02, -187500.02, 0.000, 0.000, 0.000, 18:57:57.880, 1577145477880
138, -187500.02, 90570.31, 96502.34, 102072.55, 103845.82, 96027.36, -187500.02, -187500.02, 0.000, 0.000, 0.000, 18:57:57.880, 1577145477880
139, -187500.02, 90905.70, 96860.88, 102434.55, 104169.27, 95679.27, -187500.02, -187500.02, 0.000, 0.000, 0.000, 18:57:57.880, 1577145477880
140, -187500.02, 91116.88, 97013.27, 102592.54, 104538.73, 98481.72, -187500.02, -187500.02, 0.194, 0.266, 0.984, 18:57:57.880, 1577145477880
141, -187500.02, 90748.84, 96633.34, 102207.21, 104180.85, 98469.69, -187500.02, -187500.02, 0.000, 0.000, 0.000, 18:57:57.880, 1577145477880
142, -187500.02, 90536.70, 96458.16, 102027.20, 103841.91, 96402.18, -187500.02, -187500.02, 0.000, 0.000, 0.000, 18:57:57.880, 1577145477880
143, -187500.02, 90793.70, 96745.12, 102318.98, 104037.51, 95389.15, -187500.02, -187500.02, 0.000, 0.000, 0.000, 18:57:57.880, 1577145477880
144, -187500.02, 91127.61, 97029.57, 102603.89, 104512.28, 98051.51, -187500.02, -187500.02, 0.000, 0.000, 0.000, 18:57:57.880, 1577145477880
145, -187500.02, 90834.89, 96707.99, 102280.64, 104257.90, 98706.48, -187500.02, -187500.02, 0.000, 0.000, 0.000, 18:57:57.880, 1577145477880
146, -187500.02, 90547.83, 96455.84, 102030.30, 103879.23, 96798.63, -187500.02, -187500.02, 0.000, 0.000, 0.000, 18:57:57.880, 1577145477880
147, -187500.02, 90729.69, 96682.24, 102261.04, 103974.63, 95278.42, -187500.02, -187500.02, 0.000, 0.000, 0.000, 18:57:57.880, 1577145477880
148, -187500.02, 91103.45, 97011.64, 102589.52, 104459.22, 97527.34, -187500.02, -187500.02, 0.000, 0.000, 0.000, 18:57:57.880, 1577145477880
149, -187500.02, 90895.76, 96768.70, 102346.40, 104338.23, 98876.88, -187500.02, -187500.02, 0.000, 0.000, 0.000, 18:57:57.880, 1577145477880
150, -187500.02, 90561.46, 96470.08, 102044.56, 103925.55, 97193.23, -187500.02, -187500.02, 0.192, 0.266, 0.978, 18:57:57.880, 1577145477880
151, -187500.02, 90666.77, 96618.45, 102197.18, 103916.12, 95333.07, -187500.02, -187500.02, 0.000, 0.000, 0.000, 18:57:57.880, 1577145477880
152, -187500.02, 91086.51, 97009.41, 102586.37, 104414.88, 97017.77, -187500.02, -187500.02, 0.000, 0.000, 0.000, 18:57:57.880, 1577145477880
153, -187500.02, 90986.04, 96851.70, 102429.64, 104412.86, 98954.68, -187500.02, -187500.02, 0.000, 0.000, 0.000, 18:57:57.880, 1577145477880
154, -187500.02, 90603.55, 96491.20, 102069.33, 103970.95, 97552.27, -187500.02, -187500.02, 0.000, 0.000, 0.000, 18:57:57.880, 1577145477880
155, -187500.02, 90607.40, 96550.46, 102128.11, 103867.23, 95481.82, -187500.02, -187500.02, 0.000, 0.000, 0.000, 18:57:57.880, 1577145477880
156, -187500.02, 91022.02, 96948.84, 102526.11, 104314.98, 96457.34, -187500.02, -187500.02, 0.000, 0.000, 0.000, 18:57:57.880, 1577145477880
157, -187500.02, 91039.63, 96916.49, 102495.80, 104475.49, 98902.29, -187500.02, -187500.02, 0.000, 0.000, 0.000, 18:57:57.881, 1577145477881
158, -187500.02, 90648.93, 96541.23, 102117.79, 104050.07, 97904.73, -187500.02, -187500.02, 0.000, 0.000, 0.000, 18:57:57.881, 1577145477881
159, -187500.02, 90585.49, 96526.07, 102100.84, 103862.92, 95772.98, -187500.02, -187500.02, 0.000, 0.000, 0.000, 18:57:57.881, 1577145477881
160, -187500.02, 90969.79, 96913.05, 102488.42, 104241.29, 96003.11, -187500.02, -187500.02, 0.192, 0.266, 0.980, 18:57:57.881, 1577145477881
161, -187500.02, 91088.36, 96969.80, 102541.75, 104502.49, 98725.87, -187500.02, -187500.02, 0.000, 0.000, 0.000, 18:57:57.881, 1577145477881
162, -187500.02, 90708.74, 96587.45, 102160.19, 104114.27, 98235.49, -187500.02, -187500.02, 0.000, 0.000, 0.000, 18:57:57.881, 1577145477881
163, -187500.02, 90560.91, 96484.05, 102061.05, 103859.16, 96119.18, -187500.02, -187500.02, 0.000, 0.000, 0.000, 18:57:57.881, 1577145477881
164, -187500.02, 90875.82, 96822.84, 102400.02, 104143.93, 95641.50, -187500.02, -187500.02, 0.000, 0.000, 0.000, 18:57:57.881, 1577145477881
165, -187500.02, 91115.38, 97003.69, 102579.98, 104514.32, 98418.75, -187500.02, -187500.02, 0.000, 0.000, 0.000, 18:57:57.881, 1577145477881
166, -187500.02, 90764.91, 96640.65, 102215.75, 104177.79, 98492.91, -187500.02, -187500.02, 0.000, 0.000, 0.000, 18:57:57.881, 1577145477881
167, -187500.02, 90551.97, 96466.84, 102040.67, 103863.59, 96470.59, -187500.02, -187500.02, 0.000, 0.000, 0.000, 18:57:57.881, 1577145477881
168, -187500.02, 90802.93, 96749.10, 102328.18, 104049.80, 95387.38, -187500.02, -187500.02, 0.000, 0.000, 0.000, 18:57:57.881, 1577145477881
169, -187500.02, 91130.88, 97026.35, 102603.11, 104507.88, 97999.19, -187500.02, -187500.02, 0.000, 0.000, 0.000, 18:57:57.881, 1577145477881
170, -187500.02, 90849.76, 96718.48, 102295.15, 104257.67, 98729.95, -187500.02, -187500.02, 0.000, 0.000, 0.000, 18:57:57.881, 1577145477881
171, -187500.02, 90561.73, 96464.23, 102042.51, 103878.59, 96837.66, -187500.02, -187500.02, 0.196, 0.266, 0.980, 18:57:57.881, 1577145477881
172, -187500.02, 90741.77, 96685.33, 102264.93, 103978.03, 95286.55, -187500.02, -187500.02, 0.000, 0.000, 0.000, 18:57:57.881, 1577145477881
173, -187500.02, 91117.33, 97028.07, 102612.19, 104484.32, 97502.20, -187500.02, -187500.02, 0.000, 0.000, 0.000, 18:57:57.881, 1577145477881
174, -187500.02, 90911.72, 96774.78, 102358.89, 104347.22, 98904.14, -187500.02, -187500.02, 0.000, 0.000, 0.000, 18:57:57.881, 1577145477881
175, -187500.02, 90572.64, 96460.36, 102040.76, 103921.84, 97222.15, -187500.02, -187500.02, 0.000, 0.000, 0.000, 18:57:57.881, 1577145477881
176, -187500.02, 90665.94, 96606.94, 102185.65, 103911.00, 95337.25, -187500.02, -187500.02, 0.000, 0.000, 0.000, 18:57:57.882, 1577145477882
177, -187500.02, 91087.49, 97006.66, 102587.71, 104406.70, 96959.95, -187500.02, -187500.02, 0.000, 0.000, 0.000, 18:57:57.882, 1577145477882
178, -187500.02, 90993.70, 96861.84, 102443.65, 104416.80, 98937.55, -187500.02, -187500.02, 0.000, 0.000, 0.000, 18:57:57.882, 1577145477882
179, -187500.02, 90618.91, 96504.91, 102085.73, 103981.16, 97570.86, -187500.02, -187500.02, 0.000, 0.000, 0.000, 18:57:57.882, 1577145477882
180, -187500.02, 90632.66, 96573.37, 102153.64, 103885.32, 95530.62, -187500.02, -187500.02, 0.000, 0.000, 0.000, 18:57:57.882, 1577145477882
181, -187500.02, 91032.91, 96961.51, 102542.49, 104317.17, 96417.94, -187500.02, -187500.02, 0.194, 0.270, 0.982, 18:57:57.882, 1577145477882
182, -187500.02, 91057.72, 96928.91, 102510.64, 104474.02, 98880.56, -187500.02, -187500.02, 0.000, 0.000, 0.000, 18:57:57.882, 1577145477882
183, -187500.02, 90679.77, 96565.79, 102148.34, 104077.84, 97970.60, -187500.02, -187500.02, 0.000, 0.000, 0.000, 18:57:57.882, 1577145477882
184, -187500.02, 90596.34, 96527.39, 102113.78, 103886.32, 95837.95, -187500.02, -187500.02, 0.000, 0.000, 0.000, 18:57:57.882, 1577145477882
185, -187500.02, 90964.98, 96906.74, 102495.28, 104257.83, 95988.18, -187500.02, -187500.02, 0.000, 0.000, 0.000, 18:57:57.882, 1577145477882
186, -187500.02, 91102.63, 96982.07, 102564.87, 104520.58, 98714.24, -187500.02, -187500.02, 0.000, 0.000, 0.000, 18:57:57.882, 1577145477882
187, -187500.02, 90710.91, 96581.30, 102167.98, 104116.12, 98266.45, -187500.02, -187500.02, 0.000, 0.000, 0.000, 18:57:57.882, 1577145477882
188, -187500.02, 90553.20, 96473.84, 102058.60, 103850.41, 96141.20, -187500.02, -187500.02, 0.000, 0.000, 0.000, 18:57:57.882, 1577145477882
189, -187500.02, 90881.03, 96825.32, 102411.48, 104133.00, 95590.00, -187500.02, -187500.02, 0.000, 0.000, 0.000, 18:57:57.882, 1577145477882
190, -187500.02, 91127.01, 97005.30, 102587.73, 104511.97, 98361.15, -187500.02, -187500.02, 0.000, 0.000, 0.000, 18:57:57.882, 1577145477882
191, -187500.02, 90784.58, 96653.12, 102238.51, 104202.55, 98540.77, -187500.02, -187500.02, 0.196, 0.272, 0.984, 18:57:57.882, 1577145477882
192, -187500.02, 90561.40, 96472.05, 102063.43, 103880.65, 96522.52, -187500.02, -187500.02, 0.000, 0.000, 0.000, 18:57:57.882, 1577145477882
193, -187500.02, 90799.80, 96751.22, 102344.99, 104065.77, 95380.92, -187500.02, -187500.02, 0.000, 0.000, 0.000, 18:57:57.882, 1577145477882
194, -187500.02, 91130.77, 97018.17, 102602.02, 104508.57, 97953.37, -187500.02, -187500.02, 0.000, 0.000, 0.000, 18:57:57.882, 1577145477882
195, -187500.02, 90865.70, 96725.43, 102308.42, 104282.64, 98765.80, -187500.02, -187500.02, 0.000, 0.000, 0.000, 18:57:57.882, 1577145477882
196, -187500.02, 90571.57, 96470.98, 102056.01, 103901.41, 96897.80, -187500.02, -187500.02, 0.000, 0.000, 0.000, 18:57:57.882, 1577145477882
197, -187500.02, 90733.08, 96679.25, 102265.77, 103979.84, 95304.33, -187500.02, -187500.02, 0.000, 0.000, 0.000, 18:57:57.882, 1577145477882
198, -187500.02, 91124.82, 97034.26, 102617.68, 104472.05, 97436.55, -187500.02, -187500.02, 0.000, 0.000, 0.000, 18:57:57.882, 1577145477882
199, -187500.02, 90935.07, 96791.97, 102373.16, 104355.84, 98905.46, -187500.02, -187500.02, 0.000, 0.000, 0.000, 18:57:57.882, 1577145477882
200, -187500.02, 90597.38, 96486.30, 102069.22, 103950.16, 97296.07, -187500.02, -187500.02, 0.000, 0.000, 0.000, 18:57:57.882, 1577145477882
201, -187500.02, 90666.96, 96612.17, 102195.30, 103921.44, 95381.84, -187500.02, -187500.02, 0.192, 0.270, 0.988, 18:57:57.882, 1577145477882
202, -187500.02, 91079.09, 96999.73, 102583.02, 104396.14, 96874.60, -187500.02, -187500.02, 0.000, 0.000, 0.000, 18:57:57.883, 1577145477883
203, -187500.02, 91014.29, 96879.30, 102461.40, 104437.98, 98942.83, -187500.02, -187500.02, 0.000, 0.000, 0.000, 18:57:57.883, 1577145477883
204, -187500.02, 90649.73, 96534.70, 102118.27, 104032.23, 97685.03, -187500.02, -187500.02, 0.000, 0.000, 0.000, 18:57:57.883, 1577145477883
205, -187500.02, 90629.99, 96562.98, 102146.80, 103902.84, 95583.79, -187500.02, -187500.02, 0.000, 0.000, 0.000, 18:57:57.883, 1577145477883
206, -187500.02, 91025.98, 96955.52, 102537.71, 104316.10, 96352.20, -187500.02, -187500.02, 0.000, 0.000, 0.000, 18:57:57.883, 1577145477883
207, -187500.02, 91057.70, 96926.62, 102512.72, 104485.30, 98867.15, -187500.02, -187500.02, 0.000, 0.000, 0.000, 18:57:57.883, 1577145477883
208, -187500.02, 90667.57, 96548.98, 102134.10, 104079.09, 98012.58, -187500.02, -187500.02, 0.000, 0.000, 0.000, 18:57:57.883, 1577145477883
209, -187500.02, 90577.05, 96507.25, 102092.17, 103868.62, 95869.45, -187500.02, -187500.02, 0.000, 0.000, 0.000, 18:57:57.883, 1577145477883
210, -187500.02, 90952.06, 96888.82, 102474.16, 104225.45, 95914.75, -187500.02, -187500.02, 0.000, 0.000, 0.000, 18:57:58.358, 1577145478358
211, -187500.02, 91111.52, 96990.07, 102574.99, 104532.94, 98680.78, -187500.02, -187500.02, 0.198, 0.272, 0.988, 18:57:58.358, 1577145478358
212, -187500.02, 90744.86, 96612.87, 102193.38, 104142.65, 98314.46, -187500.02, -187500.02, 0.000, 0.000, 0.000, 18:57:58.358, 1577145478358
213, -187500.02, 90574.61, 96484.23, 102068.05, 103873.36, 96204.66, -187500.02, -187500.02, 0.000, 0.000, 0.000, 18:57:58.358, 1577145478358
214, -187500.02, 90875.64, 96816.38, 102399.66, 104133.04, 95557.91, -187500.02, -187500.02, 0.000, 0.000, 0.000, 18:57:58.358, 1577145478358
215, -187500.02, 91137.36, 97017.85, 102601.57, 104530.12, 98327.60, -187500.02, -187500.02, 0.000, 0.000, 0.000, 18:57:58.358, 1577145478358
216, -187500.02, 90801.57, 96664.16, 102246.95, 104221.62, 98579.39, -187500.02, -187500.02, 0.000, 0.000, 0.000, 18:57:58.358, 1577145478358
217, -187500.02, 90567.68, 96470.13, 102053.10, 103886.21, 96573.46, -187500.02, -187500.02, 0.000, 0.000, 0.000, 18:57:58.358, 1577145478358
218, -187500.02, 90788.71, 96734.52, 102319.64, 104047.44, 95360.77, -187500.02, -187500.02, 0.000, 0.000, 0.000, 18:57:58.358, 1577145478358
219, -187500.02, 91135.73, 97034.15, 102613.63, 104514.20, 97886.87, -187500.02, -187500.02, 0.000, 0.000, 0.000, 18:57:58.359, 1577145478359
220, -187500.02, 90881.14, 96752.30, 102328.83, 104308.70, 98800.38, -187500.02, -187500.02, 0.000, 0.000, 0.000, 18:57:58.359, 1577145478359
221, -187500.02, 90583.34, 96486.09, 102063.49, 103922.22, 96967.92, -187500.02, -187500.02, 0.200, 0.270, 0.990, 18:57:58.359, 1577145478359
222, -187500.02, 90730.55, 96682.00, 102261.02, 103977.83, 95302.38, -187500.02, -187500.02, 0.000, 0.000, 0.000, 18:57:58.359, 1577145478359
223, -187500.02, 91120.55, 97034.30, 102613.63, 104475.94, 97368.84, -187500.02, -187500.02, 0.000, 0.000, 0.000, 18:57:58.359, 1577145478359
224, -187500.02, 90944.57, 96816.80, 102394.86, 104387.02, 98925.15, -187500.02, -187500.02, 0.000, 0.000, 0.000, 18:57:58.359, 1577145478359
225, -187500.02, 90612.25, 96514.36, 102089.42, 103983.62, 97346.13, -187500.02, -187500.02, 0.000, 0.000, 0.000, 18:57:58.359, 1577145478359
226, -187500.02, 90679.23, 96619.21, 102197.11, 103930.55, 95405.20, -187500.02, -187500.02, 0.000, 0.000, 0.000, 18:57:58.359, 1577145478359
227, -187500.02, 91085.28, 97009.49, 102588.98, 104400.10, 96809.91, -187500.02, -187500.02, 0.000, 0.000, 0.000, 18:57:58.359, 1577145478359
228, -187500.02, 91022.31, 96894.90, 102470.61, 104459.38, 98947.88, -187500.02, -187500.02, 0.000, 0.000, 0.000, 18:57:58.359, 1577145478359
229, -187500.02, 90640.39, 96523.86, 102098.79, 104014.80, 97703.74, -187500.02, -187500.02, 0.000, 0.000, 0.000, 18:57:58.359, 1577145478359
230, -187500.02, 90613.37, 96546.26, 102124.67, 103875.73, 95603.73, -187500.02, -187500.02, 0.000, 0.000, 0.000, 18:57:58.359, 1577145478359
231, -187500.02, 91018.98, 96957.46, 102536.75, 104332.33, 96310.84, -187500.02, -187500.02, 0.198, 0.270, 0.986, 18:57:58.359, 1577145478359
232, -187500.02, 91093.10, 96967.77, 102545.53, 104534.63, 98887.20, -187500.02, -187500.02, 0.000, 0.000, 0.000, 18:57:58.359, 1577145478359
233, -187500.02, 90704.83, 96587.41, 102163.41, 104111.47, 98071.20, -187500.02, -187500.02, 0.000, 0.000, 0.000, 18:57:58.359, 1577145478359
234, -187500.02, 90584.60, 96510.80, 102088.26, 103872.84, 95898.70, -187500.02, -187500.02, 0.000, 0.000, 0.000, 18:57:58.359, 1577145478359
235, -187500.02, 90945.42, 96890.18, 102469.65, 104227.25, 95859.99, -187500.02, -187500.02, 0.000, 0.000, 0.000, 18:57:58.359, 1577145478359
236, -187500.02, 91113.93, 96990.81, 102567.93, 104526.52, 98617.05, -187500.02, -187500.02, 0.000, 0.000, 0.000, 18:57:58.359, 1577145478359
237, -187500.02, 90739.83, 96612.87, 102189.69, 104146.97, 98329.66, -187500.02, -187500.02, 0.000, 0.000, 0.000, 18:57:58.359, 1577145478359
238, -187500.02, 90559.95, 96483.34, 102063.18, 103870.52, 96239.95, -187500.02, -187500.02, 0.000, 0.000, 0.000, 18:57:58.359, 1577145478359
239, -187500.02, 90873.00, 96825.05, 102404.94, 104138.98, 95546.82, -187500.02, -187500.02, 0.000, 0.000, 0.000, 18:57:58.359, 1577145478359
240, -187500.02, 91149.25, 97040.50, 102619.60, 104548.18, 98294.23, -187500.02, -187500.02, 0.000, 0.000, 0.000, 18:57:58.359, 1577145478359
241, -187500.02, 90821.82, 96695.61, 102273.27, 104245.05, 98611.80, -187500.02, -187500.02, 0.196, 0.274, 0.990, 18:57:58.359, 1577145478359
242, -187500.02, 90585.78, 96501.22, 102081.55, 103914.91, 96637.72, -187500.02, -187500.02, 0.000, 0.000, 0.000, 18:57:58.359, 1577145478359
243, -187500.02, 90802.69, 96754.13, 102336.09, 104056.93, 95354.73, -187500.02, -187500.02, 0.000, 0.000, 0.000, 18:57:58.359, 1577145478359
244, -187500.02, 91143.84, 97047.60, 102627.38, 104512.28, 97815.99, -187500.02, -187500.02, 0.000, 0.000, 0.000, 18:57:58.359, 1577145478359
245, -187500.02, 90889.01, 96759.55, 102337.75, 104308.62, 98795.55, -187500.02, -187500.02, 0.000, 0.000, 0.000, 18:57:58.359, 1577145478359
246, -187500.02, 90592.09, 96499.12, 102080.64, 103942.23, 97000.45, -187500.02, -187500.02, 0.000, 0.000, 0.000, 18:57:58.359, 1577145478359
247, -187500.02, 90742.18, 96696.03, 102275.59, 104005.26, 95334.08, -187500.02, -187500.02, 0.000, 0.000, 0.000, 18:57:58.359, 1577145478359
248, -187500.02, 91145.47, 97059.90, 102640.28, 104497.33, 97327.74, -187500.02, -187500.02, 0.000, 0.000, 0.000, 18:57:58.359, 1577145478359
249, -187500.02, 90975.13, 96841.61, 102419.34, 104402.54, 98934.36, -187500.02, -187500.02, 0.000, 0.000, 0.000, 18:57:58.359, 1577145478359
250, -187500.02, 90606.44, 96497.15, 102077.93, 103969.78, 97368.95, -187500.02, -187500.02, 0.000, 0.000, 0.000, 18:57:58.360, 1577145478360
251, -187500.02, 90666.27, 96617.00, 102199.10, 103930.73, 95415.86, -187500.02, -187500.02, 0.198, 0.278, 0.988, 18:57:58.360, 1577145478360
252, -187500.02, 91093.44, 97028.23, 102609.66, 104416.26, 96766.15, -187500.02, -187500.02, 0.000, 0.000, 0.000, 18:57:58.360, 1577145478360
253, -187500.02, 91052.80, 96920.60, 102499.24, 104472.36, 98977.27, -187500.02, -187500.02, 0.000, 0.000, 0.000, 18:57:58.360, 1577145478360
254, -187500.02, 90658.34, 96543.80, 102127.66, 104054.16, 97759.48, -187500.02, -187500.02, 0.000, 0.000, 0.000, 18:57:58.360, 1577145478360
255, -187500.02, 90626.91, 96577.59, 102155.18, 103907.94, 95626.03, -187500.02, -187500.02, 0.000, 0.000, 0.000, 18:57:58.360, 1577145478360
0, -187500.02, 91042.63, 96986.98, 102562.49, 104336.11, 96257.54, -187500.02, -187500.02, 0.000, 0.000, 0.000, 18:57:58.360, 1577145478360
1, -187500.02, 91106.87, 96987.19, 102563.01, 104528.17, 98850.72, -187500.02, -187500.02, 0.000, 0.000, 0.000, 18:57:58.360, 1577145478360
2, -187500.02, 90704.20, 96587.16, 102169.38, 104113.55, 98097.63, -187500.02, -187500.02, 0.000, 0.000, 0.000, 18:57:58.360, 1577145478360
3, -187500.02, 90580.13, 96516.86, 102091.27, 103882.10, 95941.17, -187500.02, -187500.02, 0.000, 0.000, 0.000, 18:57:58.360, 1577145478360
4, -187500.02, 90941.80, 96890.23, 102454.60, 104201.82, 95797.85, -187500.02, -187500.02, 0.000, 0.000, 0.000, 18:57:58.360, 1577145478360
5, -187500.02, 91136.58, 97025.79, 102588.96, 104545.21, 98607.16, -187500.02, -187500.02, 0.202, 0.276, 0.984, 18:57:58.360, 1577145478360
6, -187500.02, 90768.22, 96652.60, 102213.65, 104175.22, 98388.11, -187500.02, -187500.02, 0.000, 0.000, 0.000, 18:57:58.360, 1577145478360
7, -187500.02, 90573.76, 96503.74, 102065.86, 103875.13, 96279.38, -187500.02, -187500.02, 0.000, 0.000, 0.000, 18:57:58.360, 1577145478360
8, -187500.02, 90874.34, 96839.96, 102404.20, 104138.52, 95507.39, -187500.02, -187500.02, 0.000, 0.000, 0.000, 18:57:58.360, 1577145478360
9, -187500.02, 91159.22, 97070.41, 102631.79, 104563.65, 98247.29, -187500.02, -187500.02, 0.000, 0.000, 0.000, 18:57:58.360, 1577145478360
10, -187500.02, 90834.94, 96721.05, 102284.10, 104259.06, 98642.85, -187500.02, -187500.02, 0.000, 0.000, 0.000, 18:57:58.360, 1577145478360
11, -187500.02, 90573.83, 96499.70, 102057.80, 103895.66, 96656.00, -187500.02, -187500.02, 0.000, 0.000, 0.000, 18:57:58.360, 1577145478360
12, -187500.02, 90792.65, 96759.38, 102316.25, 104036.15, 95311.91, -187500.02, -187500.02, 0.000, 0.000, 0.000, 18:57:58.360, 1577145478360
13, -187500.02, 91145.47, 97065.42, 102622.20, 104517.76, 97751.82, -187500.02, -187500.02, 0.000, 0.000, 0.000, 18:57:58.360, 1577145478360
14, -187500.02, 90896.52, 96780.44, 102338.48, 104334.07, 98842.49, -187500.02, -187500.02, 0.000, 0.000, 0.000, 18:57:58.360, 1577145478360
15, -187500.02, 90585.70, 96503.66, 102062.29, 103939.56, 97056.50, -187500.02, -187500.02, 0.198, 0.270, 0.982, 18:57:58.360, 1577145478360
16, -187500.02, 90714.41, 96686.47, 102245.33, 103971.48, 95298.16, -187500.02, -187500.02, 0.000, 0.000, 0.000, 18:57:58.360, 1577145478360
17, -187500.02, 91113.42, 97046.76, 102609.21, 104466.91, 97227.23, -187500.02, -187500.02, 0.000, 0.000, 0.000, 18:57:58.360, 1577145478360
18, -187500.02, 90973.02, 96861.20, 102417.77, 104411.30, 98952.20, -187500.02, -187500.02, 0.000, 0.000, 0.000, 18:57:58.360, 1577145478360
19, -187500.02, 90620.74, 96534.79, 102092.88, 103993.97, 97436.93, -187500.02, -187500.02, 0.000, 0.000, 0.000, 18:57:58.360, 1577145478360
20, -187500.02, 90670.79, 96634.84, 102197.72, 103937.09, 95448.77, -187500.02, -187500.02, 0.000, 0.000, 0.000, 18:57:58.360, 1577145478360
21, -187500.02, 91077.32, 97021.81, 102583.06, 104406.65, 96695.79, -187500.02, -187500.02, 0.000, 0.000, 0.000, 18:57:58.361, 1577145478361
22, -187500.02, 91041.87, 96926.55, 102487.30, 104484.34, 98948.73, -187500.02, -187500.02, 0.000, 0.000, 0.000, 18:57:58.361, 1577145478361
23, -187500.02, 90655.92, 96557.95, 102122.88, 104051.95, 97791.13, -187500.02, -187500.02, 0.000, 0.000, 0.000, 18:57:58.361, 1577145478361
24, -187500.02, 90617.27, 96570.55, 102134.91, 103893.90, 95654.22, -187500.02, -187500.02, 0.000, 0.000, 0.000, 18:57:58.361, 1577145478361
25, -187500.02, 91006.78, 96951.34, 102519.38, 104299.00, 96173.59, -187500.02, -187500.02, 0.192, 0.270, 0.980, 18:57:58.361, 1577145478361
26, -187500.02, 91084.25, 96970.94, 102537.73, 104519.41, 98811.43, -187500.02, -187500.02, 0.000, 0.000, 0.000, 18:57:58.361, 1577145478361
27, -187500.02, 90701.16, 96594.13, 102157.46, 104101.37, 98110.66, -187500.02, -187500.02, 0.000, 0.000, 0.000, 18:57:58.361, 1577145478361
28, -187500.02, 90589.88, 96526.23, 102095.79, 103887.57, 95976.17, -187500.02, -187500.02, 0.000, 0.000, 0.000, 18:57:58.361, 1577145478361
29, -187500.02, 90942.23, 96896.55, 102467.61, 104226.77, 95775.84, -187500.02, -187500.02, 0.000, 0.000, 0.000, 18:57:58.361, 1577145478361
30, -187500.02, 91139.84, 97026.59, 102597.48, 104557.88, 98571.62, -187500.02, -187500.02, 0.000, 0.000, 0.000, 18:57:58.361, 1577145478361
31, -187500.02, 90773.20, 96652.36, 102224.38, 104190.24, 98413.48, -187500.02, -187500.02, 0.000, 0.000, 0.000, 18:57:58.361, 1577145478361
32, -187500.02, 90562.29, 96484.03, 102058.58, 103884.04, 96322.98, -187500.02, -187500.02, 0.000, 0.000, 0.000, 18:57:58.361, 1577145478361
33, -187500.02, 90856.28, 96813.78, 102384.09, 104125.66, 95472.03, -187500.02, -187500.02, 0.000, 0.000, 0.000, 18:57:58.361, 1577145478361
34, -187500.02, 91165.19, 97067.68, 102637.51, 104558.75, 98182.83, -187500.02, -187500.02, 0.000, 0.000, 0.000, 18:57:58.361, 1577145478361
35, -187500.02, 90846.29, 96717.54, 102291.34, 104274.64, 98663.79, -187500.02, -187500.02, 0.190, 0.266, 0.986, 18:57:58.361, 1577145478361
36, -187500.02, 90578.50, 96487.27, 102063.13, 103911.55, 96697.76, -187500.02, -187500.02, 0.000, 0.000, 0.000, 18:57:58.361, 1577145478361
37, -187500.02, 90787.17, 96744.45, 102321.21, 104042.56, 95300.21, -187500.02, -187500.02, 0.000, 0.000, 0.000, 18:57:58.361, 1577145478361
38, -187500.02, 91147.57, 97055.95, 102631.34, 104530.34, 97712.39, -187500.02, -187500.02, 0.000, 0.000, 0.000, 18:57:58.362, 1577145478362
39, -187500.02, 90911.98, 96781.46, 102355.54, 104362.15, 98864.87, -187500.02, -187500.02, 0.000, 0.000, 0.000, 18:57:58.362, 1577145478362
40, -187500.02, 90592.35, 96493.77, 102069.13, 103952.64, 97089.76, -187500.02, -187500.02, 0.000, 0.000, 0.000, 18:57:58.362, 1577145478362
41, -187500.02, 90702.48, 96657.34, 102231.09, 103973.34, 95306.47, -187500.02, -187500.02, 0.000, 0.000, 0.000, 18:57:58.363, 1577145478363
42, -187500.02, 91111.09, 97033.30, 102605.30, 104467.06, 97169.38, -187500.02, -187500.02, 0.000, 0.000, 0.000, 18:57:58.363, 1577145478363
43, -187500.02, 90988.63, 96857.80, 102432.07, 104436.40, 98968.58, -187500.02, -187500.02, 0.000, 0.000, 0.000, 18:57:58.363, 1577145478363
44, -187500.02, 90627.23, 96519.16, 102095.21, 104011.07, 97482.19, -187500.02, -187500.02, 0.000, 0.000, 0.000, 18:57:58.363, 1577145478363
45, -187500.02, 90662.18, 96604.26, 102182.38, 103931.67, 95446.66, -187500.02, -187500.02, 0.196, 0.264, 0.990, 18:57:58.363, 1577145478363
46, -187500.02, 91081.88, 97002.23, 102582.91, 104400.97, 96614.95, -187500.02, -187500.02, 0.000, 0.000, 0.000, 18:57:58.363, 1577145478363
47, -187500.02, 91042.48, 96908.29, 102485.52, 104490.94, 98924.99, -187500.02, -187500.02, 0.000, 0.000, 0.000, 18:57:58.363, 1577145478363
48, -187500.02, 90672.62, 96554.30, 102127.30, 104067.38, 97823.34, -187500.02, -187500.02, 0.000, 0.000, 0.000, 18:57:58.363, 1577145478363
49, -187500.02, 90630.82, 96559.02, 102131.87, 103903.71, 95686.85, -187500.02, -187500.02, 0.000, 0.000, 0.000, 18:57:58.363, 1577145478363
50, -187500.02, 91016.99, 96951.83, 102528.92, 104322.34, 96131.27, -187500.02, -187500.02, 0.000, 0.000, 0.000, 18:57:58.363, 1577145478363
51, -187500.02, 91105.22, 96978.45, 102557.04, 104551.80, 98799.24, -187500.02, -187500.02, 0.000, 0.000, 0.000, 18:57:58.363, 1577145478363
52, -187500.02, 90706.86, 96579.83, 102153.64, 104129.76, 98158.94, -187500.02, -187500.02, 0.000, 0.000, 0.000, 18:57:58.363, 1577145478363
53, -187500.02, 90585.72, 96508.17, 102082.34, 103908.61, 96029.70, -187500.02, -187500.02, 0.000, 0.000, 0.000, 18:57:58.363, 1577145478363
54, -187500.02, 90930.78, 96871.41, 102445.62, 104222.90, 95728.34, -187500.02, -187500.02, 0.000, 0.000, 0.000, 18:57:58.363, 1577145478363
55, -187500.02, 91145.63, 97030.80, 102601.52, 104568.52, 98514.13, -187500.02, -187500.02, 0.000, 0.000, 0.000, 18:57:58.363, 1577145478363
56, -187500.02, 90784.47, 96656.85, 102227.17, 104216.46, 98445.20, -187500.02, -187500.02, 0.192, 0.260, 0.986, 18:57:58.364, 1577145478364
57, -187500.02, 90583.50, 96493.46, 102066.96, 103910.89, 96387.34, -187500.02, -187500.02, 0.000, 0.000, 0.000, 18:57:58.364, 1577145478364
58, -187500.02, 90852.15, 96798.02, 102374.31, 104121.66, 95423.23, -187500.02, -187500.02, 0.000, 0.000, 0.000, 18:57:58.364, 1577145478364
59, -187500.02, 91158.28, 97050.66, 102624.99, 104561.32, 98120.73, -187500.02, -187500.02, 0.000, 0.000, 0.000, 18:57:58.364, 1577145478364
60, -187500.02, 90858.45, 96721.76, 102293.58, 104299.85, 98713.70, -187500.02, -187500.02, 0.000, 0.000, 0.000, 18:57:58.364, 1577145478364
61, -187500.02, 90594.81, 96492.39, 102069.88, 103948.98, 96778.67, -187500.02, -187500.02, 0.000, 0.000, 0.000, 18:57:58.364, 1577145478364
62, -187500.02, 90771.50, 96714.81, 102294.88, 104048.48, 95297.53, -187500.02, -187500.02, 0.000, 0.000, 0.000, 18:57:58.364, 1577145478364
63, -187500.02, 91135.91, 97041.95, 102618.04, 104524.42, 97637.13, -187500.02, -187500.02, 0.000, 0.000, 0.000, 18:57:58.364, 1577145478364
64, -187500.02, 90909.70, 96771.38, 102344.86, 104353.41, 98878.44, -187500.02, -187500.02, 0.000, 0.000, 0.000, 18:57:58.364, 1577145478364
65, -187500.02, 90600.94, 96492.45, 102071.72, 103981.56, 97158.85, -187500.02, -187500.02, 0.000, 0.000, 0.000, 18:57:58.364, 1577145478364
66, -187500.02, 90701.72, 96644.38, 102223.09, 103988.02, 95338.75, -187500.02, -187500.02, 0.196, 0.270, 0.986, 18:57:58.364, 1577145478364
67, -187500.02, 91115.25, 97030.39, 102603.35, 104470.40, 97099.44, -187500.02, -187500.02, 0.000, 0.000, 0.000, 18:57:58.364, 1577145478364
68, -187500.02, 91001.95, 96856.23, 102431.18, 104445.36, 98954.84, -187500.02, -187500.02, 0.000, 0.000, 0.000, 18:57:58.364, 1577145478364
69, -187500.02, 90636.12, 96519.99, 102098.98, 104029.22, 97522.06, -187500.02, -187500.02, 0.000, 0.000, 0.000, 18:57:58.364, 1577145478364
70, -187500.02, 90650.98, 96587.27, 102163.31, 103932.97, 95476.01, -187500.02, -187500.02, 0.000, 0.000, 0.000, 18:57:58.364, 1577145478364
71, -187500.02, 91058.26, 96972.80, 102549.51, 104374.44, 96545.70, -187500.02, -187500.02, 0.000, 0.000, 0.000, 18:57:58.364, 1577145478364
